time,Fp1,Fpz,Fp2,AF3,AF4,F7,F5,F3,F1,Fz,F2,F4,F6,F8,FT7,FC5,FC3,FC1,FCz,FC2,FC4,FC6,FT8,T7,C5,C3,C1,Cz,C2,C4,C6,T8,TP7,CP5,CP3,CP1,CPz,CP2,CP4,CP6,TP8,P7,P5,P3,P1,Pz,P2,P4,P6,P8,PO7,PO5,PO3,POz,PO4,PO6,PO8,CB1,O1,Oz,O2,CB2
0.0,-28320121.76513672,-30862424.850463867,-30301965.713500977,-6901572.227478027,-10007701.873779297,-4172009.9449157715,-7605527.877807617,-3877012.9680633545,-3873707.2944641113,-11192323.684692383,-7745953.559875488,-9583967.208862305,-10406807.899475098,-17075475.692749023,8130970.9548950195,-2380788.0878448486,1773407.4592590332,1978127.8371810913,-3674426.317214966,-5986465.930938721,-1884992.241859436,2144291.639328003,-7165991.306304932,9756691.932678223,19024721.145629883,1614941.0009384155,2232473.373413086,-240066.96045398712,-1921065.330505371,-7273123.264312744,10043937.683105469,3536457.061767578,6472246.6468811035,-268486.350774765,5145040.035247803,2867707.4909210205,-211540.78841209412,257676.1543750763,7104627.1324157715,386409.9979400635,8158705.711364746,6434147.834777832,6655257.701873779,3163547.0390319824,-164968.14787387848,-798622.0717430115,1229960.9184265137,1038689.9709701538,9628333.09173584,15126280.784606934,6537061.69128418,6516218.662261963,6425393.581390381,2711260.0803375244,9426253.318786621,9463860.511779785,8804879.188537598,6486264.705657959,6485325.813293457,3286802.7687072754,9387858.390808105,9255353.927612305
0.005,1345581.1738967896,447372.2279071808,5467144.966125488,1704227.6859283447,852128.0884742737,973497.211933136,-4774558.067321777,648412.4064445496,-88452.92031764984,-1222870.5883026123,51668.912172317505,124879.24098968506,-830823.7791061401,1571925.6401062012,5966103.076934814,-9790876.388549805,-2161430.835723877,-1955341.6967391968,611897.2897529602,-1624502.0627975464,3024077.892303467,1730385.0650787354,-3280183.792114258,7902853.012084961,-627530.4555892944,-7982003.211975098,-6217116.355895996,-7636576.175689697,-6074819.564819336,-5826929.569244385,-619934.2012405396,-30784553.52783203,-14978777.885437012,-14546787.26196289,-13222627.639770508,-12764327.049255371,-7790196.418762207,-189210.63840389252,-13051458.358764648,17833522.79663086,-10595556.259155273,-15429456.71081543,-15337681.770324707,-16093952.178955078,-16226350.784301758,-14729961.395263672,-13501699.447631836,-13204615.592956543,-14490798.950195312,-11096388.816833496,-14473186.492919922,-14565504.07409668,-15306576.7288208,-12543964.385986328,3046605.110168457,3368173.360824585,1851457.953453064,-15374452.590942383,-15057419.776916504,-10281037.330627441,4313992.977142334,4938657.283782959
0.01,50230976.10473633,51803020.47729492,57212299.34692383,26249713.897705078,32654888.153076172,14647334.098815918,3044144.1535949707,10234615.325927734,9257995.60546875,8469356.536865234,10600181.579589844,11694115.63873291,13896911.62109375,22043037.41455078,12116902.351379395,-8277768.135070801,1102129.6977996826,1431843.4000015259,3806633.472442627,539879.1432380676,8798296.928405762,9094096.183776855,-284712.2550010681,14215230.941772461,566323.2803344727,-9318778.991699219,-7691058.158874512,-11010392.189025879,-8427134.51385498,-7515240.19241333,-1183220.8633422852,-47796821.59423828,-26601779.93774414,-22965770.721435547,-19732465.744018555,-18918395.99609375,-11312717.43774414,138479.545712471,-19476522.44567871,23025638.580322266,-23966182.708740234,-27418424.606323242,-27287595.748901367,-25028856.27746582,-24958030.700683594,-22673894.88220215,-20400613.78479004,-20691230.77392578,-23297979.3548584,-20122735.97717285,-26106952.667236328,-26266796.112060547,-27340482.711791992,-22751970.291137695,-1735186.8152618408,-1182262.7782821655,-3194272.994995117,-27553060.53161621,-27082063.674926758,-19476099.014282227,30051.227658987045,864201.9629478455
0.015,96226486.20605469,99482315.06347656,101890960.69335938,54005867.00439453,69310653.68652344,32329620.361328125,12780328.750610352,20114709.854125977,19241743.087768555,14062201.499938965,19099033.35571289,20167959.213256836,27010217.666625977,36466892.24243164,24875572.204589844,215942.8894519806,8520268.440246582,8962691.307067871,4625516.891479492,-87017.28284358978,13031608.581542969,19939189.910888672,1670224.4281768799,27068708.419799805,17819536.209106445,-4101826.6677856445,-3900728.940963745,-10685043.334960938,-8897892.951965332,-11132257.461547852,6530719.28024292,-46207271.575927734,-25587310.791015625,-23468534.469604492,-15246617.317199707,-16512281.41784668,-11054607.391357422,707524.0015983582,-13792419.43359375,19625690.460205078,-27924608.23059082,-26611877.44140625,-26425037.384033203,-23722202.30102539,-26002794.26574707,-23976486.206054688,-19517717.361450195,-20548768.997192383,-17281427.38342285,-12237537.384033203,-25411590.576171875,-25600111.00769043,-26739820.48034668,-25068250.65612793,-1993335.9622955322,-1346897.6020812988,-3440099.4777679443,-26972663.87939453,-26537910.46142578,-21595832.82470703,-439226.895570755,176859.43841934204
0.02,100446792.60253906,102550949.09667969,102595779.41894531,58859153.747558594,77094306.94580078,41637573.2421875,17212640.7623291,21419961.92932129,20471345.901489258,11971447.944641113,18339275.360107422,19071907.04345703,27392826.080322266,35326023.10180664,34728126.525878906,6794155.120849609,11373545.64666748,11683016.777038574,2679087.1620178223,-2203079.93888855,12556008.338928223,23428075.790405273,3065119.743347168,37007194.51904297,29369745.2545166,-299640.86413383484,-1947191.834449768,-9921677.589416504,-8565060.61553955,-12398692.13104248,12382004.737854004,-36816925.048828125,-16944007.873535156,-18379577.63671875,-9852681.159973145,-13702105.522155762,-10265866.27960205,458590.2690887451,-8097716.331481934,20427991.86706543,-22022787.09411621,-17934232.711791992,-17889741.897583008,-19771146.774291992,-24153793.334960938,-22163631.439208984,-16598480.224609375,-16684041.976928711,-8785915.37475586,-1312167.8829193115,-16901954.650878906,-17036775.588989258,-18264123.916625977,-20810567.85583496,3444772.243499756,4003357.410430908,2053830.1467895508,-18260738.372802734,-17960416.793823242,-17570316.314697266,4768892.765045166,5289529.800415039
0.025,60536060.33325195,59375247.955322266,60042015.075683594,36889987.94555664,50546157.83691406,37676147.4609375,14351848.602294922,13438254.356384277,12118989.944458008,4170723.4382629395,8789344.787597656,9740434.646606445,15027604.103088379,21008853.912353516,35356128.69262695,7144667.625427246,7065431.594848633,7014376.640319824,-763790.1902198792,-4102790.355682373,7893404.960632324,16567968.368530273,3905201.196670532,37507503.509521484,24867948.532104492,-1373951.4350891113,-4697876.453399658,-10389686.584472656,-8162784.576416016,-9460459.70916748,10862964.630126953,-28494049.072265625,-8067749.0234375,-12129794.120788574,-9633389.472961426,-14798604.011535645,-10686154.36553955,-571753.4422874451,-8801286.697387695,28979503.631591797,-10909771.919250488,-8856867.790222168,-9073400.497436523,-17851999.282836914,-22462867.736816406,-19794178.009033203,-15150701.522827148,-12471834.182739258,-6001560.211181641,2695848.4649658203,-7811896.324157715,-7819466.114044189,-9265219.688415527,-14486275.672912598,11334110.260009766,11711052.894592285,9963389.39666748,-8876518.249511719,-8704399.108886719,-11457868.576049805,12731504.440307617,13512699.127197266
0.03,12843957.901000977,8918957.710266113,12094001.770019531,9555059.432983398,17241662.979125977,27070566.177368164,8276448.2498168945,3683941.602706909,2108700.0370025635,-4175290.107727051,-2074362.5164031982,-411815.19627571106,480126.91736221313,5014439.582824707,29346290.588378906,4008301.258087158,873286.0088348389,528159.1415405273,-4121401.309967041,-5643789.768218994,2409085.0353240967,6471195.697784424,2815818.5482025146,31066961.28845215,14027528.762817383,-4041060.9245300293,-8605148.315429688,-11005754.470825195,-8040461.540222168,-5789174.0798950195,5470802.783966064,-24111476.89819336,-2969209.1941833496,-8642279.624938965,-11921722.412109375,-16717334.747314453,-11310352.325439453,-1295880.5561065674,-11928774.8336792,36357173.919677734,-2157578.706741333,-3582634.449005127,-3971984.624862671,-16591905.59387207,-20084510.803222656,-16508848.190307617,-13990404.12902832,-8679187.774658203,-6719457.149505615,1463793.158531189,-2447210.0734710693,-2342406.749725342,-3950231.5521240234,-9506757.736206055,17231147.76611328,17504083.63342285,15933363.914489746,-3284232.8548431396,-3169388.771057129,-6543365.478515625,18746194.83947754,19848752.975463867
0.035,-14029289.245605469,-19109991.0736084,-13535604.476928711,-5852721.691131592,-15977.06414759159,17605308.532714844,2255078.7925720215,-2729578.971862793,-4145065.3076171875,-10745306.015014648,-9247436.5234375,-7285738.945007324,-8956752.77709961,-5925761.699676514,22746753.692626953,75055.71097135544,-2788986.921310425,-3150488.3766174316,-6956666.469573975,-7946697.71194458,-2104385.3759765625,-542427.8974533081,-1587522.5067138672,24143138.885498047,8208999.6337890625,-5343585.014343262,-10189981.460571289,-10696455.955505371,-8757720.947265625,-6191789.150238037,866849.2436408997,-25500026.70288086,-1531352.7584075928,-9588178.634643555,-12642292.022705078,-15823383.331298828,-11037566.184997559,-1097214.937210083,-12949352.264404297,35188446.044921875,-1003962.2783660889,-2115903.13911438,-2603480.577468872,-14505747.79510498,-16254327.774047852,-11869800.567626953,-11829030.03692627,-5805110.931396484,-6820874.214172363,-195477.57506370544,-940007.8058242798,-841384.768486023,-2356734.037399292,-5762427.806854248,19838224.411010742,20172281.26525879,18659297.943115234,-1655172.7056503296,-1508937.120437622,-2859929.323196411,21294401.168823242,22472171.783447266
0.04,-23848354.33959961,-29458642.959594727,-22244344.71130371,-12583992.004394531,-5255399.227142334,10244912.147521973,-3909716.3677215576,-7391568.183898926,-8444776.53503418,-16159793.853759766,-13848526.000976562,-12458208.084106445,-14825487.13684082,-13524261.474609375,17512014.389038086,-5286078.929901123,-5094239.234924316,-5310724.73526001,-9292185.78338623,-11026055.335998535,-6312856.197357178,-5458600.044250488,-8132246.017456055,19116210.9375,5610410.213470459,-6480091.571807861,-10296401.023864746,-10090793.60961914,-10429578.78112793,-10628602.027893066,-3427673.33984375,-33318763.732910156,-2469776.153564453,-13602419.85321045,-12492745.399475098,-13460676.193237305,-10397364.616394043,-500773.19145202637,-13598277.09197998,28870126.724243164,-6493430.137634277,-3121907.4726104736,-3750083.6849212646,-13483746.528625488,-12873164.176940918,-7647042.751312256,-10283457.75604248,-5310501.0986328125,-7529381.75201416,-2753788.709640503,-1893858.1943511963,-1927204.1320800781,-3144256.830215454,-2262326.955795288,20021474.838256836,20491149.90234375,18863088.607788086,-2601168.8709259033,-2377248.2872009277,478259.1462135315,21398979.18701172,22498641.967773438
0.045,-30072368.621826172,-36224769.592285156,-28012191.772460938,-19428958.892822266,-10883847.2366333,2989737.033843994,-9863641.738891602,-12135816.57409668,-13011015.892028809,-19499004.364013672,-17447601.318359375,-16851678.8482666,-19623977.661132812,-19439096.450805664,11803563.117980957,-11764596.939086914,-8171095.848083496,-8328077.31628418,-10359840.393066406,-12942198.753356934,-10155270.57647705,-11115696.907043457,-13365457.534790039,13827916.145324707,-854526.1025428772,-8926241.874694824,-11119008.06427002,-10056598.663330078,-11893068.313598633,-14143772.12524414,-9385386.46697998,-42711788.177490234,-5135285.8543396,-17369266.510009766,-13988061.904907227,-12943446.159362793,-10244355.201721191,-220845.7887172699,-16955591.201782227,24653514.862060547,-13330430.98449707,-5819444.65637207,-6533188.343048096,-15001567.840576172,-12023377.418518066,-6070953.845977783,-11068947.792053223,-7486389.636993408,-11417261.123657227,-8738233.56628418,-4453757.286071777,-4625304.222106934,-5575235.843658447,-418905.1687717438,17604389.190673828,18123573.303222656,16342819.213867188,-5288928.985595703,-5010172.8439331055,2132475.6145477295,19057144.165039062,20171356.201171875
0.05,-31957113.26599121,-37957817.07763672,-29660814.28527832,-24321022.033691406,-15918559.074401855,-2600857.973098755,-12689187.049865723,-14427500.72479248,-15383329.391479492,-18078172.68371582,-18052221.298217773,-17715032.57751465,-21131299.97253418,-21074470.52001953,5587645.530700684,-15797137.260437012,-10677050.590515137,-10909759.521484375,-9276057.243347168,-12023868.560791016,-11652745.246887207,-15957110.404968262,-15005007.74383545,7431053.638458252,-10040078.163146973,-11158565.521240234,-12490921.974182129,-10234654.426574707,-11786370.277404785,-13194045.066833496,-15069881.439208984,-46583850.8605957,-8603961.944580078,-18474935.53161621,-16513156.89086914,-14457183.837890625,-10352512.35961914,-265938.9078617096,-21564460.75439453,23884582.51953125,-17403465.270996094,-9218616.485595703,-9783566.47491455,-17031459.80834961,-13193350.791931152,-7130302.429199219,-12989762.306213379,-10109867.095947266,-16331953.048706055,-16166994.094848633,-7721045.970916748,-7910584.449768066,-8810086.250305176,-2331953.0487060547,12496744.155883789,12931442.260742188,11198766.708374023,-8773374.557495117,-8480220.794677734,122490.25702476501,14060523.03314209,15266749.382019043
0.055,-24423997.87902832,-29278736.114501953,-22139951.705932617,-21341663.360595703,-13322320.938110352,-3117885.8280181885,-11089550.018310547,-12199286.460876465,-13301741.600036621,-12702345.848083496,-14452049.255371094,-14087354.66003418,-17807128.90625,-17837709.426879883,2310663.2232666016,-15169902.801513672,-10527658.462524414,-10819565.773010254,-6884011.268615723,-9358372.688293457,-10070720.672607422,-16772342.681884766,-14264923.095703125,3239016.29447937,-14257382.3928833,-11351531.028747559,-12971468.925476074,-9897287.368774414,-10451345.443725586,-10007370.948791504,-16775413.513183594,-44279224.39575195,-10698325.157165527,-17219991.68395996,-17322963.71459961,-15564701.080322266,-10119001.388549805,-263268.7985897064,-23854759.216308594,23234424.591064453,-18444633.48388672,-11180977.821350098,-11468789.100646973,-17059116.36352539,-14359594.345092773,-8778380.393981934,-13585783.004760742,-10627354.621887207,-17551580.42907715,-19694211.959838867,-9675581.932067871,-9771736.145019531,-10829671.859741211,-6466524.124145508,8042709.3505859375,8368323.32611084,6910800.933837891,-10874716.758728027,-10571430.206298828,-4006374.3591308594,9591844.55871582,10763043.403625488
0.06,-15448959.350585938,-19425851.821899414,-14303008.079528809,-14299049.377441406,-6982437.610626221,1009684.2050552368,-8264243.125915527,-8809535.98022461,-10006487.846374512,-9222436.904907227,-10715831.756591797,-10794770.240783691,-14236265.182495117,-15161948.204040527,4834237.575531006,-12465330.123901367,-8712302.207946777,-8960547.44720459,-5574696.063995361,-7981841.087341309,-8029591.5603637695,-14321225.1663208,-13881149.291992188,5072917.938232422,-10071052.551269531,-10301308.631896973,-12433273.315429688,-9248751.640319824,-9628591.537475586,-9286311.149597168,-14344307.899475098,-41725250.244140625,-9098623.275756836,-15088805.198669434,-15453367.233276367,-15064640.045166016,-9685153.007507324,-130356.22239112854,-23100214.0045166,21723375.32043457,-17571701.049804688,-9464803.695678711,-9644634.246826172,-15543892.860412598,-14558573.722839355,-9362553.596496582,-12360360.145568848,-8871518.1350708,-13962008.476257324,-16801471.710205078,-8030795.097351074,-8048645.973205566,-9313316.345214844,-8076347.351074219,9113082.885742188,9431843.757629395,8201925.277709961,-9165071.487426758,-8875823.020935059,-5573563.575744629,10603962.898254395,11605877.876281738
0.065,-18329504.013061523,-23174005.50842285,-19932296.752929688,-12913954.734802246,-7987353.801727295,5607038.497924805,-8054278.373718262,-9152725.219726562,-10411610.60333252,-12461250.305175781,-12346353.530883789,-13301397.323608398,-16241088.8671875,-18349079.132080078,12205417.63305664,-11226655.960083008,-7572493.553161621,-7760754.108428955,-6822717.189788818,-9666827.201843262,-8578994.750976562,-12290236.473083496,-14685135.841369629,12900724.411010742,-809235.8708381653,-9470991.134643555,-11667551.040649414,-8984476.089477539,-10155314.445495605,-12181596.755981445,-10691949.844360352,-42201847.076416016,-3323119.640350342,-12199532.508850098,-12112025.260925293,-13828001.976013184,-9542325.019836426,-23554.14442718029,-20850126.266479492,21782121.658325195,-14454396.24786377,-3633149.8622894287,-3933406.5914154053,-14049003.601074219,-14113451.957702637,-8878699.30267334,-10724412.91809082,-6607163.429260254,-8567640.30456543,-9651691.436767578,-2244017.8394317627,-2267112.7319335938,-3637149.8107910156,-4757521.629333496,16124355.31616211,16533309.936523438,15238420.486450195,-3141529.083251953,-2980668.544769287,-2185072.422027588,17657550.811767578,18593326.568603516
0.07,-32312160.49194336,-39728427.88696289,-37249881.744384766,-18836832.04650879,-17747884.75036621,8023406.028747559,-10006604.194641113,-12780640.602111816,-14049650.192260742,-20158676.147460938,-18827657.69958496,-20209777.83203125,-22604110.717773438,-25365449.905395508,20835531.23474121,-11170410.15625,-7194586.277008057,-7384554.862976074,-9422076.225280762,-13033684.730529785,-11087922.096252441,-11933279.037475586,-15207506.17980957,22797910.690307617,9035851.47857666,-8485675.811767578,-10774618.148803711,-9143699.645996094,-10955567.359924316,-15504619.598388672,-7366855.144500732,-42325134.27734375,4309246.063232422,-8048972.129821777,-8760753.631591797,-12769938.468933105,-9630898.475646973,65896.30246162415,-17920522.689819336,24487848.28186035,-8750436.782836914,4001252.6512145996,3566147.804260254,-12478241.920471191,-13523244.857788086,-8260549.545288086,-9754531.860351562,-5306041.240692139,-4181277.7519226074,-2069273.2334136963,5348941.326141357,5316144.943237305,3939787.3878479004,349426.65696144104,23762975.692749023,24231843.948364258,22685623.168945312,4674328.327178955,4591458.797454834,3079821.1097717285,25370025.634765625,26450181.96105957
0.075,-42463455.20019531,-52653125.76293945,-49443012.23754883,-23786424.63684082,-25454477.310180664,9200930.59539795,-10575941.08581543,-14596828.46069336,-15778582.572937012,-25061225.89111328,-23341609.954833984,-24194374.084472656,-25814346.313476562,-28977195.739746094,26841264.724731445,-9910587.310791016,-6105259.895324707,-6291252.136230469,-10605363.845825195,-14889943.12286377,-11912067.413330078,-11169647.216796875,-14120021.82006836,29639026.641845703,15950464.248657227,-6735240.936279297,-9546113.014221191,-9157159.805297852,-10615956.30645752,-16151067.733764648,-4190816.4024353027,-38939117.431640625,9416451.454162598,-4421305.179595947,-6967661.380767822,-12159223.556518555,-9513655.662536621,290931.91027641296,-14928159.713745117,27523498.53515625,-3120691.0610198975,9080047.607421875,8593111.991882324,-10808360.09979248,-13367688.179016113,-8304359.436035156,-9500320.434570312,-5352803.2302856445,-1713749.647140503,2515540.599822998,10318937.301635742,10360345.840454102,8958917.617797852,2197536.4685058594,26617792.1295166,27024366.37878418,25356702.80456543,9713037.490844727,9443848.609924316,5176861.28616333,28185886.38305664,29396255.493164062
0.08,-36968765.25878906,-48439674.377441406,-43757537.841796875,-20957983.016967773,-22269001.007080078,10707798.00415039,-7956003.665924072,-11681846.618652344,-12779114.723205566,-22209033.966064453,-20312360.763549805,-20143981.93359375,-20818584.442138672,-24488632.202148438,27268541.33605957,-7483615.875244141,-4364456.1767578125,-4473215.103149414,-8627820.96862793,-13050230.026245117,-8981961.250305176,-8876381.874084473,-11721364.02130127,29721153.259277344,15614304.542541504,-5580082.416534424,-8588730.812072754,-8756386.756896973,-9108195.304870605,-14103636.741638184,-2707893.6100006104,-35069648.74267578,8145573.616027832,-4722783.56552124,-8815299.034118652,-12607077.598571777,-9108821.868896484,640773.6539840698,-14138415.336608887,28229248.046875,-2215352.5352478027,7749661.922454834,7148808.002471924,-11417116.165161133,-14515538.215637207,-9281519.889831543,-10013029.098510742,-6782469.272613525,-2094659.8052978516,1048221.3497161865,8887939.453125,9018177.98614502,7540514.4691467285,-684489.4886016846,23949230.194091797,24228322.982788086,22714269.638061523,8209205.627441406,7962352.275848389,2489722.728729248,25435344.696044922,26522079.467773438
0.085,-18410932.540893555,-29023565.2923584,-23737602.23388672,-12491127.967834473,-11201560.020446777,12443655.014038086,-3702077.627182007,-6455532.550811768,-7645785.331726074,-13222503.662109375,-11429444.313049316,-10513032.913208008,-10661917.686462402,-14082548.141479492,22042634.963989258,-6070172.7867126465,-3460323.5721588135,-3520330.4290771484,-4271265.029907227,-8212347.030639648,-4266247.272491455,-7017446.041107178,-9195305.824279785,23375192.642211914,6260567.665100098,-6467917.919158936,-8620099.067687988,-8263312.339782715,-7546905.994415283,-11169422.149658203,-5500122.547149658,-35912590.02685547,878136.0983848572,-9096660.614013672,-14608413.696289062,-14670845.985412598,-8729262.351989746,949220.4785346985,-17356996.536254883,26502471.923828125,-7673387.52746582,370110.8396053314,-476981.0736179352,-16098388.671875,-17155517.578125,-10970665.93170166,-11576016.426086426,-9484607.696533203,-6173172.950744629,-7129833.221435547,1538257.9565048218,1639183.4020614624,159185.7522726059,-5639467.239379883,18497608.184814453,18727365.493774414,17502054.21447754,754023.1347084045,655016.4222717285,-2488289.8330688477,20044290.54260254,20881881.713867188
0.09,63888.64666223526,-8502747.535705566,-4280338.764190674,-5296806.812286377,-1949920.892715454,13403219.223022461,-585710.7043266296,-3115953.9222717285,-4527310.848236084,-4470861.434936523,-3661079.168319702,-2622487.3065948486,-3174821.376800537,-4962043.285369873,15428379.05883789,-6437243.938446045,-3712668.4188842773,-3891853.8093566895,-297745.85366249084,-3690930.8433532715,-1405992.1503067017,-7495034.694671631,-7642279.148101807,15788350.105285645,-5534638.88168335,-8205268.859863281,-9216105.461120605,-8089950.5615234375,-6923839.092254639,-8969436.645507812,-11008296.012878418,-41635822.29614258,-6880155.086517334,-12946745.872497559,-20760726.928710938,-17318635.940551758,-8602981.567382812,1160111.7849349976,-22446672.439575195,24159107.208251953,-15353847.50366211,-7535254.955291748,-8576550.483703613,-21952768.325805664,-20090961.456298828,-12841058.731079102,-13828252.792358398,-12668087.95928955,-11925149.917602539,-17276430.130004883,-6292158.603668213,-6301783.084869385,-7640498.638153076,-9767321.586608887,13029484.748840332,13346018.79119873,12340610.50415039,-7122021.198272705,-7149085.04486084,-6802198.886871338,14742857.933044434,15559949.87487793
0.095,4290574.073791504,-3067524.194717407,-246684.10420417786,-4222352.504730225,-1248967.6475524902,12355164.527893066,-989831.5668106079,-3629929.542541504,-5096839.904785156,-2538982.391357422,-2903742.790222168,-2396703.9585113525,-3981420.5169677734,-4406105.995178223,12973247.528076172,-7747247.219085693,-3978446.7220306396,-4347062.110900879,371824.7711658478,-3234794.6166992188,-2143509.62638855,-9073917.388916016,-8010371.208190918,13128031.730651855,-8352120.399475098,-8503625.869750977,-9344518.661499023,-8287938.117980957,-7499072.074890137,-8883486.7477417,-12796416.282653809,-46802555.084228516,-9059911.727905273,-12776721.000671387,-22436019.897460938,-18291496.27685547,-8686176.300048828,1384995.1028823853,-24442741.39404297,22907852.172851562,-18394508.361816406,-9813595.77178955,-10800338.745117188,-23828105.926513672,-21867048.263549805,-14284064.292907715,-15450875.282287598,-14787814.140319824,-14193824.768066406,-20923633.575439453,-8666696.548461914,-8666701.316833496,-9886046.409606934,-12225126.266479492,9692465.782165527,10134380.340576172,9174392.700195312,-9461101.531982422,-9527606.964111328,-9311788.558959961,11416663.16986084,12516942.024230957
0.1,-11298873.901367188,-19557723.999023438,-16481472.01538086,-9762972.831726074,-9172528.266906738,8010659.217834473,-6118174.076080322,-7436227.798461914,-8639265.060424805,-9801477.432250977,-9718292.236328125,-10254666.328430176,-12585695.266723633,-14217174.530029297,15652707.09991455,-10015533.447265625,-3805354.356765747,-4143242.359161377,-3201985.1207733154,-7971808.910369873,-5521841.526031494,-9309878.3493042,-10758631.706237793,16458402.633666992,1583781.7192077637,-7344875.812530518,-8735805.51147461,-8521126.747131348,-8887499.809265137,-11892764.0914917,-7018548.965454102,-46519615.173339844,-5057068.824768066,-11281018.257141113,-18627073.287963867,-16532501.220703125,-8761585.235595703,1672286.1528396606,-20972398.75793457,23194599.151611328,-13581242.561340332,-5796391.010284424,-6522828.578948975,-20713802.337646484,-22105545.043945312,-14747186.660766602,-15162716.86553955,-14490892.41027832,-9554608.345031738,-13736978.530883789,-4895060.062408447,-4693317.413330078,-6011680.126190186,-12863759.994506836,10424456.596374512,10894277.572631836,9765232.08618164,-5623381.614685059,-5697029.590606689,-9663882.2555542,11890874.862670898,13233119.96459961
0.105,-37097667.6940918,-47449546.813964844,-42649204.25415039,-18654659.271240234,-20655696.868896484,1228206.992149353,-14046105.38482666,-12664281.845092773,-13508125.305175781,-21937088.012695312,-19525283.813476562,-21098526.000976562,-23515790.939331055,-28337772.369384766,19133096.69494629,-13479511.260986328,-4001938.819885254,-3987017.869949341,-8873313.903808594,-14948856.353759766,-9549895.286560059,-8578057.289123535,-15184181.213378906,21035875.32043457,15094496.726989746,-6529032.230377197,-7879170.894622803,-8340033.531188965,-10296139.71710205,-17023370.74279785,1383208.3940505981,-41773235.32104492,72447.83639907837,-13124056.816101074,-12978206.634521484,-13344099.044799805,-8528910.636901855,1869682.4312210083,-15318914.413452148,23980030.059814453,-4978075.5043029785,-603154.1228294373,-1066916.2273406982,-16628932.95288086,-21163269.04296875,-13943985.939025879,-13034564.971923828,-11936280.250549316,-991764.0686035156,-1482916.1167144775,208164.4833087921,594599.9026298523,-936586.9164466858,-11176533.699035645,15010932.922363281,15391383.171081543,13920560.836791992,-501733.06465148926,-480488.8665676117,-7580629.348754883,16165239.334106445,17399728.775024414
0.11,-52471168.518066406,-64051643.37158203,-58574836.73095703,-24880992.889404297,-28312767.028808594,-2664509.7732543945,-18780241.012573242,-16324777.603149414,-17031587.600708008,-29840509.41467285,-25701887.130737305,-27542062.759399414,-30129993.438720703,-37112876.892089844,20088657.37915039,-15507154.46472168,-4699037.075042725,-4304565.4296875,-12565027.236938477,-19125226.974487305,-12494046.211242676,-9807551.383972168,-19572813.034057617,22679470.06225586,20185621.26159668,-6424722.194671631,-7138586.521148682,-7602687.835693359,-10939191.818237305,-20993133.544921875,3299654.006958008,-38885681.15234375,1595234.0364456177,-17058452.606201172,-9567272.186279297,-10920661.926269531,-7832790.851593018,1785120.964050293,-13441497.802734375,23431968.688964844,-965417.2658920288,885493.4573173523,503918.46895217896,-15140411.376953125,-19459001.541137695,-12431960.105895996,-10868067.741394043,-9370975.494384766,3834701.0612487793,4039519.786834717,1896144.8669433594,2219996.929168701,671869.8740005493,-8110743.522644043,19200998.306274414,19478069.305419922,17716732.025146484,1133388.4000778198,1248328.8049697876,-4495757.102966309,20263072.967529297,21178791.046142578
0.115,-44108013.15307617,-55351745.60546875,-51798278.80859375,-23192186.35559082,-26976734.161376953,2407400.131225586,-14778647.422790527,-15329233.169555664,-16133136.749267578,-26989301.681518555,-24127788.543701172,-25267992.01965332,-28933794.021606445,-36040565.490722656,20771844.8638916,-11884652.137756348,-4404234.886169434,-3992245.1972961426,-11516899.108886719,-17776206.970214844,-13155570.030212402,-13779254.913330078,-22421176.91040039,22929979.32434082,15494596.481323242,-5487750.53024292,-6559262.275695801,-6676438.331604004,-10635662.078857422,-21194448.471069336,-3840544.4622039795,-42827129.36401367,-130778.4616947174,-16871429.443359375,-9195354.461669922,-10310125.350952148,-6944438.934326172,1448529.4818878174,-17964586.25793457,20752035.14099121,-6039137.840270996,-1018669.1284179688,-1580123.1861114502,-15810566.902160645,-17869705.200195312,-11673934.936523438,-10854807.85369873,-9712892.532348633,92312.93946504593,-3041919.231414795,181046.9776391983,253399.25289154053,-1056351.0656356812,-6887423.992156982,17859285.354614258,18107078.552246094,16378723.14453125,-641608.3574295044,-523799.8962402344,-3778831.720352173,19067783.35571289,19819742.20275879
0.12,-21499366.760253906,-32254131.317138672,-31551319.122314453,-14387611.389160156,-18603906.631469727,15081021.308898926,-3938623.6667633057,-9569661.140441895,-10463820.457458496,-16370231.628417969,-16841066.360473633,-17115457.53479004,-22381727.21862793,-30025489.807128906,24855052.947998047,-2881095.1709747314,-1982695.6987380981,-1925588.7269973755,-6961860.656738281,-13146622.657775879,-11465121.269226074,-16965299.606323242,-23449203.491210938,25786714.553833008,10441127.77709961,-3167522.430419922,-6172898.292541504,-6029265.880584717,-9901252.746582031,-18809432.983398438,-12879704.475402832,-50692195.892333984,-1359338.2835388184,-10683832.168579102,-9839524.269104004,-10834984.77935791,-6334310.054779053,1162137.9852294922,-25090908.05053711,17520994.186401367,-15240010.261535645,-2423687.696456909,-3337440.9675598145,-16445713.04321289,-17516506.19506836,-12456973.0758667,-13092169.761657715,-13341152.19116211,-8512549.40032959,-15482666.015625,-1363205.7905197144,-1476028.2039642334,-2604032.516479492,-9192156.791687012,11394478.797912598,11661230.087280273,10246391.296386719,-2187633.752822876,-2102329.2541503906,-6671310.901641846,12792329.788208008,13612117.767333984
0.125,-9012477.87475586,-20633335.11352539,-20838571.548461914,-6127525.329589844,-11868330.001831055,25120582.580566406,4390471.935272217,-3455189.7048950195,-4314927.101135254,-8416608.810424805,-11014709.47265625,-11311141.014099121,-17706605.911254883,-28089101.791381836,30969501.495361328,4784119.129180908,1242513.4181976318,982758.0451965332,-3222208.9767456055,-10315828.323364258,-9281862.258911133,-16033777.236938477,-23739618.3013916,31172248.84033203,13106337.547302246,-1169716.1197662354,-5852053.642272949,-5647884.845733643,-9366032.600402832,-17704364.776611328,-15462229.72869873,-54010009.765625,422735.5420589447,-4488661.289215088,-9146817.207336426,-10821366.310119629,-6039008.617401123,1246785.5215072632,-27975826.263427734,16292499.542236328,-18872869.49157715,-629219.4128036499,-1778400.0635147095,-15824175.834655762,-17865732.192993164,-13180740.356445312,-14748691.55883789,-16640075.68359375,-12759319.305419922,-19974782.943725586,125633.71658325195,5484.478082507849,-1235892.415046692,-11257412.910461426,7023464.202880859,7278993.606567383,6032909.870147705,-672468.6026573181,-573079.1091918945,-8877435.684204102,8502176.284790039,9362843.51348877
0.13,-19731267.92907715,-33176952.362060547,-31810350.41809082,-6087482.929229736,-14238575.93536377,23666139.602661133,2850713.014602661,-2312378.8833618164,-3140897.9892730713,-10235588.073730469,-12347593.307495117,-13719627.380371094,-20802736.282348633,-34021961.2121582,33609954.833984375,4687604.904174805,2387571.334838867,2218487.024307251,-3495461.4639282227,-12078063.011169434,-9401120.18585205,-13206639.289855957,-25122119.903564453,34363559.72290039,20848283.767700195,-1260363.8172149658,-5358430.862426758,-5164655.2085876465,-9283561.706542969,-20059335.708618164,-11655611.991882324,-49505931.85424805,4587483.4060668945,-4180811.4051818848,-6393180.370330811,-9042545.318603516,-5617352.485656738,1722123.2652664185,-24068094.25354004,17465105.056762695,-14225718.49822998,3766937.017440796,2738314.390182495,-13494136.810302734,-16354145.050048828,-11113721.84753418,-12991354.942321777,-15516159.057617188,-7944668.769836426,-12329625.129699707,4475646.018981934,4417895.793914795,2947015.0470733643,-7265052.795410156,11046169.28100586,11247849.464416504,9724369.049072266,3660508.394241333,3804614.0670776367,-4613572.120666504,12504997.253417969,13241719.245910645
0.135,-40849033.35571289,-55442134.857177734,-52111396.78955078,-14020603.17993164,-24012960.43395996,13299530.029296875,-5788497.9248046875,-6836283.206939697,-7756269.931793213,-18054361.34338379,-19057802.200317383,-21602987.28942871,-29764848.709106445,-42986484.52758789,29561618.80493164,-2074777.8415679932,-71390.72567224503,170495.1822757721,-6681744.09866333,-16232109.069824219,-12659794.807434082,-14110574.722290039,-28733854.293823242,31304679.87060547,23527664.184570312,-3373006.1054229736,-5125311.851501465,-4555310.249328613,-9585971.83227539,-24050041.19873047,-8877573.96697998,-45075645.446777344,8272693.634033203,-8256730.079650879,-3440955.400466919,-6216290.473937988,-4913119.792938232,2261818.8858032227,-18545375.82397461,18465635.299682617,-9972303.39050293,7768729.686737061,7060192.108154297,-9919471.740722656,-11799749.374389648,-6046425.819396973,-8838185.31036377,-10700766.563415527,-40800.04245042801,-3108460.9031677246,8746905.326843262,8738131.523132324,7236928.939819336,2347472.667694092,20328371.047973633,20502908.70666504,18541955.947875977,7902851.581573486,8065460.205078125,5175745.964050293,21744335.174560547,22402654.64782715
0.14,-49246772.76611328,-63551635.7421875,-59623527.52685547,-22232183.4564209,-32029689.78881836,4063008.7852478027,-12674509.048461914,-12576856.61315918,-13628582.000732422,-22625238.4185791,-24075138.092041016,-26724582.67211914,-36060134.88769531,-47356468.200683594,20760002.13623047,-9053725.242614746,-4802411.079406738,-4253081.798553467,-9105061.531066895,-18477724.075317383,-16540403.366088867,-19931919.09790039,-33491699.21875,22500331.87866211,15011393.547058105,-6455988.883972168,-6280271.530151367,-4283089.637756348,-10053817.749023438,-26259572.982788086,-11780748.36730957,-50083015.44189453,8081360.816955566,-11916402.816772461,-3658196.6876983643,-4803945.064544678,-4441193.103790283,2480340.003967285,-18302886.962890625,16972961.42578125,-15209331.512451172,7826898.097991943,7226283.073425293,-7867765.9034729,-7251229.763031006,-1433947.6823806763,-6408908.367156982,-7370421.886444092,1013069.9872970581,-4862005.710601807,9005816.459655762,9091074.94354248,7753063.201904297,9284830.093383789,24839872.360229492,25054912.567138672,23068553.924560547,8242185.592651367,8384622.573852539,11908783.912658691,26227361.67907715,27051290.51208496
0.145,-38356971.740722656,-51726482.39135742,-48103115.08178711,-23908090.591430664,-31584539.41345215,563338.041305542,-13965669.631958008,-15162029.266357422,-16236904.14428711,-20704938.888549805,-23287576.67541504,-24785083.770751953,-33851081.84814453,-44888782.5012207,11293287.27722168,-12769324.30267334,-8963629.722595215,-8473978.996276855,-9013042.449951172,-17483808.517456055,-17661735.53466797,-24742744.44580078,-36423965.45410156,12025935.173034668,482083.261013031,-9805788.99383545,-9016307.830810547,-4614194.869995117,-10331142.42553711,-25609661.102294922,-16007312.774658203,-61471836.09008789,2347031.593322754,-15089358.32977295,-8357945.442199707,-6383258.34274292,-4683529.853820801,2259049.654006958,-22802440.643310547,14292829.513549805,-26228006.36291504,2193262.5770568848,1412747.859954834,-10694492.34008789,-7111639.499664307,-755132.1983337402,-7735300.540924072,-8492849.349975586,-5872622.966766357,-15747180.938720703,3290800.5714416504,3523608.684539795,2280326.8432617188,6574201.583862305,19652677.536010742,19911262.51220703,18434776.306152344,2712915.4205322266,2802832.3650360107,8862992.286682129,21005283.35571289,22061641.693115234
0.15,-22759210.58654785,-35528553.0090332,-31819261.55090332,-19214998.245239258,-24602731.704711914,-1974603.4145355225,-14076496.124267578,-14450150.489807129,-15428990.364074707,-17413436.889648438,-19322093.963623047,-19517824.172973633,-26550256.729125977,-39781990.05126953,4018250.4653930664,-15453240.394592285,-10629388.809204102,-10393751.14440918,-8004932.403564453,-15858634.948730469,-15449813.842773438,-22589151.38244629,-35369983.6730957,4192889.2135620117,-8446275.71105957,-12745391.845703125,-11548438.07220459,-5173700.332641602,-10177925.109863281,-24121084.213256836,-13972290.992736816,-66197982.78808594,-6989726.0665893555,-21408575.0579834,-14461506.843566895,-9472508.430480957,-5325949.668884277,1806364.893913269,-24519863.12866211,13877363.204956055,-30325893.40209961,-7216012.477874756,-8037351.608276367,-17739284.51538086,-11675856.590270996,-3631299.9725341797,-10252958.297729492,-11118959.426879883,-11187041.282653809,-21791681.28967285,-6208757.8773498535,-5936246.395111084,-7242651.462554932,-3081670.2842712402,10809947.967529297,11019068.717956543,10094881.057739258,-6719792.84286499,-6706229.686737061,-917029.4404029846,12079345.703125,13105002.403259277
0.155,-15917314.529418945,-28267770.767211914,-24147253.036499023,-12675723.0758667,-17070066.452026367,-8067588.806152344,-17306528.091430664,-12792644.500732422,-13665678.977966309,-17008300.78125,-16311267.852783203,-16390888.214111328,-21583868.0267334,-35728691.10107422,-143727.22804546356,-19340839.385986328,-9936057.090759277,-9796128.273010254,-7718952.655792236,-15907340.049743652,-12380368.23272705,-15157763.481140137,-31028181.076049805,680891.5734291077,-6465623.378753662,-14212503.433227539,-11891011.238098145,-5420035.839080811,-9870510.10131836,-24030778.884887695,-5496242.523193359,-58963077.545166016,-15848435.401916504,-30595176.696777344,-17671312.33215332,-11227962.493896484,-5627207.279205322,1460993.2899475098,-19974054.33654785,16344774.24621582,-23295633.31604004,-16277906.41784668,-16714429.85534668,-24206861.49597168,-16875129.69970703,-6853490.352630615,-10845289.23034668,-11448346.138000488,-8233428.001403809,-16412330.627441406,-15099217.414855957,-15005658.149719238,-16360189.437866211,-11338690.757751465,6340514.183044434,6417222.023010254,5616295.81451416,-15852351.188659668,-15871816.635131836,-9129166.603088379,7475716.114044189,8200496.673583984
0.16,-13990263.938903809,-25361511.23046875,-21670621.871948242,-7666220.664978027,-11909790.0390625,-14335301.399230957,-21221242.904663086,-11538660.049438477,-12370744.705200195,-16979614.2578125,-14542091.369628906,-15767096.519470215,-20918933.868408203,-31401187.896728516,-2015201.3301849365,-22381942.749023438,-8523529.052734375,-8216994.285583496,-7305570.602416992,-16563730.239868164,-10984951.972961426,-9709272.384643555,-26117893.21899414,-461090.2667045593,-288725.19731521606,-13913002.967834473,-10416850.090026855,-5259859.561920166,-10029388.427734375,-25322528.839111328,1061464.786529541,-50062709.80834961,-21936937.33215332,-37343387.603759766,-17736724.853515625,-11028094.291687012,-5353613.376617432,1421499.490737915,-15596788.40637207,18012573.2421875,-15949086.18927002,-22564285.278320312,-22574377.059936523,-27147239.685058594,-19446702.95715332,-8307264.32800293,-10252112.38861084,-10857328.414916992,-3050588.1309509277,-9760070.80078125,-21166746.139526367,-21315290.451049805,-22596998.21472168,-14360340.118408203,5518288.612365723,5502582.550048828,4465053.558349609,-22315572.73864746,-22240022.659301758,-12181129.455566406,6548296.928405762,7029942.512512207
0.165,-7941630.840301514,-17843805.31311035,-15519246.101379395,-5621191.501617432,-9071491.241455078,-15510075.569152832,-21696922.302246094,-11113053.321838379,-11952777.862548828,-14197686.195373535,-12748720.169067383,-15062877.655029297,-20880916.595458984,-25092445.373535156,-3682765.7222747803,-22279287.338256836,-8303483.009338379,-7774811.744689941,-5671189.308166504,-15851582.527160645,-11646069.526672363,-10318788.528442383,-23150836.944580078,-2598404.4075012207,136867.15066432953,-13378855.70526123,-9506119.728088379,-4960374.355316162,-10774966.2399292,-26449634.552001953,-633127.748966217,-51044639.587402344,-25863845.825195312,-38619991.302490234,-18201240.53955078,-10817550.659179688,-4946453.094482422,1558998.703956604,-18584598.541259766,15842400.550842285,-18995828.62854004,-26533784.866333008,-26646381.378173828,-28658882.14111328,-19884307.861328125,-8255898.475646973,-11035676.956176758,-13108161.926269531,-5474428.176879883,-13526878.356933594,-25237001.419067383,-25438114.166259766,-26644559.860229492,-14788093.566894531,2361750.841140747,2392810.344696045,1105018.0196762085,-26534875.869750977,-26291236.877441406,-12715253.829956055,3438382.863998413,3946904.8976898193
0.17,-2986668.825149536,-11970936.77520752,-10239406.58569336,-7972287.178039551,-9753513.33618164,-13814744.94934082,-20724721.908569336,-12607020.378112793,-13451562.881469727,-11993456.840515137,-12433938.980102539,-14670261.38305664,-19949720.38269043,-20765733.71887207,-6488842.964172363,-21554822.92175293,-10092206.001281738,-9478087.425231934,-4380438.327789307,-14604972.839355469,-13054119.110107422,-13809407.234191895,-23080068.588256836,-6439405.44128418,-5638980.388641357,-14490601.539611816,-10457352.638244629,-4687582.015991211,-11340728.759765625,-26605831.146240234,-6403552.532196045,-58531078.33862305,-27922676.08642578,-37595149.993896484,-20533435.821533203,-11678279.876708984,-4807178.497314453,1507775.3067016602,-25431749.34387207,12157625.198364258,-27579944.610595703,-28465999.603271484,-29091045.379638672,-30943084.716796875,-19750013.35144043,-7463910.102844238,-12656577.110290527,-17083469.39086914,-13633809.089660645,-22853546.142578125,-27485578.536987305,-27536172.86682129,-28752233.505249023,-14912610.054016113,-2602071.762084961,-2417232.036590576,-3864055.395126343,-28513275.146484375,-28205888.748168945,-12817876.815795898,-1311162.9486083984,-654656.171798706
0.175,-10477467.53692627,-19648151.397705078,-16352083.206176758,-13863378.524780273,-14330781.936645508,-15641208.64868164,-23061197.28088379,-15904388.427734375,-16728845.596313477,-14691860.19897461,-14942773.818969727,-16264348.983764648,-20146301.26953125,-23180057.525634766,-9131656.646728516,-24104532.24182129,-12575133.323669434,-11980417.251586914,-5438486.099243164,-14902152.061462402,-13394043.922424316,-14568547.248840332,-24777856.826782227,-9052219.39086914,-9347120.28503418,-16790424.346923828,-11864714.622497559,-4426925.6591796875,-10896684.646606445,-26125591.278076172,-7517021.656036377,-60323673.248291016,-26621309.280395508,-38057258.60595703,-21623081.20727539,-12068364.143371582,-4847960.472106934,1054084.5394134521,-26519113.540649414,11717750.549316406,-28964029.31213379,-27009119.033813477,-27819860.458374023,-31498004.913330078,-18800598.14453125,-6262873.17276001,-12165638.92364502,-17517812.728881836,-16212068.557739258,-23695402.145385742,-26101779.93774414,-26030685.424804688,-27211408.615112305,-13532148.361206055,-2311605.215072632,-1968589.0674591064,-3592533.1115722656,-26746294.021606445,-26529125.213623047,-11298213.958740234,-807198.9417076111,-111533.89513492584
0.18,-24276193.618774414,-33880901.33666992,-27997587.203979492,-17331573.486328125,-17444599.151611328,-20536954.879760742,-26917901.99279785,-17388856.887817383,-18209030.151367188,-18384870.529174805,-16443351.745605469,-16958351.135253906,-20352460.861206055,-28288997.650146484,-9203169.822692871,-28044921.875,-13006775.856018066,-12446873.664855957,-7270315.647125244,-15862594.604492188,-11246926.307678223,-10925795.555114746,-25317550.659179688,-7990131.855010986,-6597661.972045898,-17468568.801879883,-11584549.903869629,-4187077.045440674,-9578128.814697266,-25099527.35900879,-2762705.5644989014,-53927288.05541992,-22012620.92590332,-38645526.88598633,-18633008.95690918,-10428036.6897583,-4794287.204742432,447983.2053184509,-20515466.690063477,14983982.08618164,-21717119.216918945,-22342599.868774414,-22655754.08935547,-26964113.235473633,-16419885.635375977,-5482418.060302734,-9412142.753601074,-13224585.53314209,-9592654.22821045,-14714019.775390625,-21162637.71057129,-21154136.657714844,-22137205.123901367,-10528966.903686523,4397984.981536865,4855324.268341064,3088541.269302368,-21752378.463745117,-21603250.50354004,-8312154.769897461,5904479.98046875,6546231.269836426
0.185,-24984891.891479492,-34323120.1171875,-27438779.830932617,-13026168.823242188,-13068278.312683105,-21052400.588989258,-25448038.10119629,-13767261.505126953,-14669824.600219727,-15718136.78741455,-12446879.386901855,-12445648.193359375,-16287008.285522461,-27064764.02282715,-6359039.306640625,-27220363.61694336,-10080832.481384277,-9619374.27520752,-6588729.8583984375,-14830273.628234863,-7286858.081817627,-5976152.8968811035,-22747936.248779297,-4578700.542449951,-1886924.9820709229,-14699453.353881836,-9436811.447143555,-3996767.520904541,-8411052.703857422,-23374652.862548828,886741.6977882385,-49011402.13012695,-17595830.9173584,-35907493.591308594,-13409313.201904297,-7728563.30871582,-4575204.372406006,178774.43134784698,-16028547.286987305,17636800.76599121,-16934602.737426758,-17950378.41796875,-17580949.783325195,-19499687.19482422,-13846241.95098877,-6119187.831878662,-7733766.555786133,-9379706.382751465,-2912849.9031066895,-8946112.632751465,-16587360.382080078,-16730646.133422852,-17512025.833129883,-9218218.803405762,9006790.161132812,9548851.013183594,7860545.635223389,-17496900.55847168,-17255502.700805664,-7263012.409210205,10282500.267028809,10928621.292114258
0.19,-9853066.444396973,-18791143.4173584,-13382633.209228516,-4655937.194824219,-4728741.16897583,-14396370.887756348,-17972085.95275879,-7864389.896392822,-8931508.06427002,-8596786.499023438,-6411667.346954346,-5827784.538269043,-9247702.598571777,-19376825.3326416,-2472785.9497070312,-20452709.197998047,-6017850.399017334,-5792642.116546631,-3940875.768661499,-12483039.855957031,-4899575.233459473,-3592726.230621338,-19050472.259521484,-1446744.5611953735,46400.036662817,-10293187.141418457,-7273225.3074646,-3810043.8117980957,-8245033.264160156,-21919105.529785156,-854285.717010498,-51366641.998291016,-16450498.580932617,-30653335.571289062,-9921557.426452637,-6095318.794250488,-4307159.423828125,392944.0379142761,-18187419.891357422,17068471.908569336,-20571857.452392578,-16826059.341430664,-16235897.064208984,-15115626.335144043,-12928349.494934082,-7563703.0601501465,-8784534.454345703,-9899367.332458496,-3601691.484451294,-13030725.479125977,-15695589.065551758,-15904844.284057617,-16745002.746582031,-11440645.217895508,5597734.451293945,6192123.4130859375,4762259.006500244,-16922286.987304688,-16551849.365234375,-9690751.075744629,6621169.090270996,7330722.808837891
0.195,916051.3281822205,-8888194.08416748,-5661560.535430908,-1483714.22290802,-2864903.688430786,-7036712.646484375,-12189898.490905762,-6059372.425079346,-7228144.645690918,-6818125.7247924805,-6626423.8357543945,-5606720.924377441,-7191080.093383789,-15197376.251220703,977686.1071586609,-14009653.091430664,-4367842.674255371,-4414730.548858643,-3386026.382446289,-12581766.128540039,-6872366.428375244,-4750185.012817383,-18062171.936035156,1217599.9879837036,1043812.7517700195,-7822043.895721436,-6725204.4677734375,-3632435.7986450195,-8907027.244567871,-22228971.481323242,-4123795.986175537,-54475452.4230957,-17381336.212158203,-27286582.946777344,-9355352.401733398,-6109013.557434082,-4117341.0415649414,734066.1883354187,-21749158.85925293,15777055.740356445,-25200958.251953125,-17753843.307495117,-17398530.960083008,-16313634.872436523,-13765406.608581543,-8055212.97454834,-10192309.379577637,-12163035.39276123,-7076697.826385498,-17652574.53918457,-17019668.579101562,-17160619.735717773,-18308101.654052734,-14255864.143371582,-349642.276763916,231898.0246782303,-1017162.9190444946,-18245782.85217285,-17909502.029418945,-12375623.70300293,627728.9986610413,1333683.8483810425
0.2,-3266054.86869812,-15019902.229309082,-12808010.10131836,-4887629.03213501,-9080560.684204102,-4696183.204650879,-12422060.012817383,-9108058.92944336,-10169700.622558594,-12200120.92590332,-13104871.74987793,-12283049.583435059,-12269772.52960205,-18076477.05078125,3624854.08782959,-12824861.526489258,-5695811.2716674805,-5865638.732910156,-5758259.296417236,-15383475.303649902,-11005334.854125977,-7046113.49105835,-19288913.72680664,4197626.59072876,3214052.200317383,-8455282.211303711,-7691262.245178223,-3632099.390029907,-9335783.958435059,-23462432.861328125,-4374613.285064697,-51017948.150634766,-17650594.71130371,-27560966.49169922,-10407878.875732422,-7009490.013122559,-4101694.107055664,850886.5833282471,-21108749.389648438,16813085.556030273,-22931051.25427246,-18031791.68701172,-17926887.51220703,-20175783.157348633,-15271265.029907227,-7501065.254211426,-9853050.231933594,-12157046.3180542,-6478836.0595703125,-14234360.694885254,-17436153.411865234,-17434421.53930664,-18825775.146484375,-14636028.289794922,-1154687.0470046997,-643067.9559707642,-1822177.8869628906,-18431533.813476562,-18270790.100097656,-12454535.484313965,6127.484608441591,639463.0670547485
0.205,-4452622.890472412,-17144563.674926758,-14963710.78491211,-5615077.495574951,-11600294.11315918,-4214506.62612915,-12886157.989501953,-10450671.195983887,-11267336.84539795,-14000416.75567627,-15404604.9118042,-14949281.692504883,-14731097.221374512,-17421524.047851562,4642463.207244873,-13933896.0647583,-7004998.683929443,-7126476.764678955,-6552382.946014404,-15781846.046447754,-11643172.264099121,-7112684.24987793,-17185325.622558594,5788437.366485596,2470381.021499634,-9923199.653625488,-8908795.356750488,-3924587.7265930176,-8585863.11340332,-22355361.938476562,-3349289.655685425,-44474243.1640625,-17530578.61328125,-28613061.904907227,-12517436.981201172,-8477041.244506836,-4301965.713500977,822547.9125976562,-19511421.20361328,19132867.81311035,-17436426.162719727,-17928382.873535156,-17935377.12097168,-23397439.95666504,-17095981.59790039,-7939324.855804443,-9331700.325012207,-10911614.418029785,-4604319.095611572,-9279831.886291504,-17219829.559326172,-17073448.181152344,-18414562.225341797,-14166852.951049805,1284496.0689544678,1734691.6198730469,769889.8911476135,-18042827.606201172,-18015026.092529297,-11896410.942077637,2694037.914276123,3330907.8216552734
0.21,14167604.446411133,2854173.421859741,5032034.397125244,2012354.1355133057,-2029772.0432281494,-551156.4612388611,-7813386.4402771,-5874879.837036133,-6554811.000823975,-5075019.836425781,-7244575.023651123,-6355214.1189575195,-6393035.411834717,-5010975.360870361,3065355.3009033203,-12393832.206726074,-5974973.678588867,-6002693.176269531,-2704763.650894165,-10713029.861450195,-6758944.034576416,-3850905.418395996,-9214936.256408691,3697092.294692993,-4837421.894073486,-9929605.484008789,-9381369.590759277,-4333544.2543029785,-6890849.590301514,-17870908.737182617,-4514925.479888916,-42630149.841308594,-19063566.207885742,-27823596.954345703,-15728031.158447266,-10456521.987915039,-4620191.0972595215,893735.6472015381,-22361021.041870117,20005397.79663086,-16438083.64868164,-19443229.67529297,-19613035.202026367,-25510429.38232422,-19330331.802368164,-10308892.250061035,-10760083.198547363,-11925004.005432129,-7862682.819366455,-12581212.043762207,-18679609.298706055,-18462863.92211914,-19584543.228149414,-15760477.066040039,180787.41431236267,621767.8785324097,45501.451939344406,-19502744.674682617,-19491949.0814209,-13683218.002319336,1732826.9481658936,2490882.635116577
0.215,36413078.30810547,27317785.263061523,29864933.013916016,10476401.329040527,11062614.440917969,3580495.834350586,-1863245.129585266,11395.938694477081,-739160.418510437,6114261.627197266,3692165.3747558594,5449345.588684082,5706389.904022217,9288837.432861328,222166.32962226868,-9545104.98046875,-3861675.024032593,-3793228.3878326416,2336026.191711426,-4663963.794708252,-962511.5990638733,453298.77734184265,-1374832.272529602,-148941.12944602966,-12873833.656311035,-8994000.434875488,-8970113.754272461,-4540820.598602295,-5678202.152252197,-14155373.573303223,-6099634.647369385,-45065921.783447266,-21681970.596313477,-26502590.17944336,-18299123.764038086,-11880018.23425293,-4845265.865325928,1009411.3349914551,-27149698.25744629,19415987.014770508,-19003818.51196289,-22018119.81201172,-22404167.17529297,-26761426.92565918,-21162750.244140625,-12725297.927856445,-13061671.257019043,-15096031.188964844,-13847281.455993652,-19933563.232421875,-21331186.294555664,-21175907.135009766,-22214506.149291992,-18440431.594848633,-4055418.014526367,-3596897.602081299,-4027822.971343994,-22225566.864013672,-22183984.756469727,-16547586.441040039,-2515868.1869506836,-1681199.1930007935
0.22,33698364.2578125,25124773.025512695,29143945.693969727,9791308.403015137,13399106.0256958,2101232.0518493652,-3137172.6989746094,639596.5218544006,-195465.01338481903,7163391.11328125,6159420.490264893,7545258.045196533,7968103.408813477,9242670.059204102,-428459.13767814636,-10146224.975585938,-3025236.129760742,-2790412.425994873,3519937.9920959473,-3982253.313064575,302342.11683273315,2480234.6229553223,-1412279.2482376099,-594999.4325637817,-12066747.665405273,-8853008.270263672,-8026962.2802734375,-4429731.845855713,-6133783.340454102,-16018415.451049805,-4146730.899810791,-45169734.954833984,-22500999.450683594,-27082271.575927734,-17744991.302490234,-11484265.327453613,-4843396.6636657715,930131.4949989319,-27365331.649780273,19111297.607421875,-18490924.835205078,-22839870.45288086,-23193923.950195312,-26423192.977905273,-21672174.45373535,-13302426.3381958,-13929484.367370605,-17392660.14099121,-14363412.857055664,-19410207.748413086,-22145824.432373047,-22119838.71459961,-23333671.56982422,-19172271.728515625,-4833397.388458252,-4373195.648193359,-5187599.182128906,-23086742.401123047,-22998376.846313477,-17250881.19506836,-3398384.8094940186,-2658189.7735595703
0.225,8156831.741333008,-2034708.7383270264,3495963.5734558105,2014300.82321167,4309154.510498047,-3490923.8815307617,-9948827.743530273,-3257611.7515563965,-3991670.846939087,-1113104.224205017,-7762.242574244738,-734969.973564148,-1054618.000984192,-4888425.827026367,2885409.8320007324,-13640174.865722656,-3348764.181137085,-2915827.2743225098,1148253.4408569336,-8409649.848937988,-2848688.840866089,1197016.3583755493,-8357151.031494141,4204185.962677002,-2488049.268722534,-9306733.131408691,-6919744.968414307,-4143127.918243408,-7772239.685058594,-22293087.005615234,87197.95942306519,-41541141.510009766,-20434774.39880371,-28778877.25830078,-14327813.148498535,-9755204.200744629,-4672433.853149414,690630.3763389587,-23107475.28076172,19111522.674560547,-14152230.262756348,-20850889.205932617,-20822717.666625977,-24528852.462768555,-21413454.055786133,-12814817.428588867,-13519489.288330078,-17818252.563476562,-8477120.399475098,-10201692.581176758,-20002386.09313965,-20009792.32788086,-21477655.4107666,-17803861.618041992,-570543.0507659912,-125896.8859910965,-1486658.215522766,-20963153.839111328,-20792432.78503418,-15756845.474243164,775050.1036643982,1366157.4125289917
0.23,-10601136.207580566,-22627197.265625,-17450374.603271484,-3179465.7707214355,-4851150.035858154,-5690140.724182129,-13365446.090698242,-6272468.090057373,-6825142.860412598,-8291018.486022949,-6542937.278747559,-9287819.862365723,-10203926.086425781,-17317716.598510742,8016622.543334961,-14633314.13269043,-3157889.8429870605,-2679740.9057617188,-996093.5711860657,-12668004.035949707,-6463543.41506958,-1571783.9002609253,-13880189.895629883,10394304.275512695,6327160.358428955,-8632144.927978516,-5931375.503540039,-3902349.7104644775,-9017672.538757324,-27054798.126220703,1673092.007637024,-39393955.23071289,-16865245.819091797,-28515386.5814209,-10867493.629455566,-8390475.273132324,-4502628.803253174,586911.3206863403,-20306003.57055664,18344148.635864258,-11323475.83770752,-17366130.828857422,-16949441.90979004,-22531351.08947754,-21407447.814941406,-12756543.159484863,-13315861.701965332,-17647413.25378418,-3354837.8944396973,-2833946.704864502,-16431962.966918945,-16330396.65222168,-17868886.947631836,-16167175.29296875,3661576.747894287,4103406.9061279297,2597071.1708068848,-17374160.766601562,-17145805.35888672,-14060153.007507324,5024476.528167725,5613034.725189209
0.235,-9614995.002746582,-22047548.294067383,-18726037.979125977,-3624837.1601104736,-8327413.558959961,-3041293.3826446533,-11355050.086975098,-7305065.155029297,-7860013.961791992,-10719985.008239746,-9903993.606567383,-12695379.257202148,-12589588.165283203,-19219890.594482422,11379342.079162598,-11944425.582885742,-2534067.153930664,-2225129.8427581787,-2161386.251449585,-14599955.558776855,-8691606.521606445,-3591297.6264953613,-13692825.317382812,13518489.837646484,8879085.540771484,-6762161.2548828125,-5312500.476837158,-3894258.499145508,-9227008.819580078,-27488758.087158203,-175642.75860786438,-41242454.528808594,-12825964.92767334,-25599328.994750977,-8926819.801330566,-7859185.695648193,-4486135.005950928,733774.9004364014,-20871707.916259766,17510093.688964844,-11712166.786193848,-13336636.543273926,-12865355.491638184,-21009971.618652344,-21077022.552490234,-12491245.26977539,-12934264.183044434,-16918472.290039062,-2541028.7380218506,-2133527.0404815674,-12498437.881469727,-12308176.040649414,-13668891.906738281,-14065172.19543457,5414372.92098999,5894853.591918945,4591986.179351807,-13336826.32446289,-13176503.18145752,-11914698.600769043,6909241.676330566,7629940.032958984
0.24,-7764553.070068359,-19568111.419677734,-16985111.236572266,-6028555.393218994,-11397778.511047363,-2814526.5579223633,-11477934.837341309,-9997578.620910645,-10775094.985961914,-14109669.68536377,-13624470.710754395,-15124666.213989258,-13119740.48614502,-18336067.19970703,11387245.178222656,-11158365.249633789,-3205934.762954712,-3086530.923843384,-4660958.766937256,-16766227.722167969,-10789288.520812988,-4400963.306427002,-12372615.814208984,13114741.325378418,9426413.536071777,-5902838.706970215,-5164291.3818359375,-4207094.192504883,-9369162.559509277,-27051485.061645508,-1365441.083908081,-43565063.4765625,-8810307.502746582,-23294107.43713379,-7635343.551635742,-7142510.414123535,-4684670.448303223,947289.8840904236,-20869123.458862305,18064903.259277344,-11523903.846740723,-9247879.981994629,-8944030.76171875,-19043338.775634766,-19298328.399658203,-10832833.290100098,-11225729.942321777,-14847554.206848145,-2019121.1700439453,-1866491.9137954712,-8498505.592346191,-8368942.2607421875,-9478372.573852539,-10597516.059875488,7678785.800933838,8250247.001647949,6918586.730957031,-9173713.684082031,-9174345.970153809,-8318125.7247924805,9303586.959838867,10078047.752380371
0.245,-20756074.905395508,-32315704.345703125,-28230360.03112793,-12903341.293334961,-17878856.658935547,-9532937.049865723,-18122722.625732422,-15057538.032531738,-16038347.244262695,-20782815.93322754,-18923656.463623047,-19951995.849609375,-17564119.338989258,-23814865.112304688,8560400.009155273,-16183742.52319336,-5399617.671966553,-5302313.804626465,-8307542.80090332,-20291076.66015625,-13288039.207458496,-5127381.801605225,-15549321.174621582,10804672.241210938,12161133.766174316,-7482186.317443848,-5386407.852172852,-4687270.164489746,-10316683.769226074,-29479633.331298828,-299213.14120292664,-44006706.23779297,-7332684.9937438965,-25162076.950073242,-6708033.561706543,-6055960.655212402,-5015842.914581299,1101488.3518218994,-18657955.169677734,19023839.950561523,-9676468.849182129,-7659697.05581665,-7406230.449676514,-17097137.451171875,-17266765.594482422,-9186132.431030273,-9484319.686889648,-13134657.859802246,610271.155834198,1914974.4510650635,-6832922.93548584,-6783638.000488281,-7774025.440216064,-8352402.687072754,10832084.655761719,11504812.240600586,9708748.817443848,-7398789.882659912,-7513532.1617126465,-5960464.4775390625,12425162.315368652,13061761.856079102
0.25,-34964340.20996094,-47187454.22363281,-41406620.025634766,-17518390.655517578,-22409309.38720703,-17644689.559936523,-25193456.649780273,-18046628.952026367,-19022146.224975586,-24477100.372314453,-21161977.767944336,-23258508.682250977,-22923536.30065918,-32148311.614990234,3951791.524887085,-23077396.392822266,-7103831.768035889,-6933598.518371582,-9563243.865966797,-22161369.32373047,-14566020.011901855,-6708862.781524658,-21869127.27355957,6964283.9431762695,13413677.215576172,-10158976.554870605,-5877567.291259766,-4973048.210144043,-11360444.068908691,-33063137.05444336,-498119.20523643494,-45253589.63012695,-11545410.15625,-30905242.919921875,-7799817.085266113,-5991688.7283325195,-5286155.700683594,1263576.0307312012,-18116861.34338379,18015195.846557617,-10394618.98803711,-11756664.276123047,-11362000.465393066,-17875547.409057617,-17839124.67956543,-10177118.301391602,-10225989.34173584,-14678300.857543945,1147573.5902786255,3286205.768585205,-10832249.641418457,-10687675.476074219,-11717432.022094727,-11164932.250976562,9710024.8336792,10389471.054077148,8221765.518188477,-11414813.041687012,-11542812.34741211,-8875761.032104492,11075812.339782715,11547130.584716797
0.255,-30308164.596557617,-43291324.615478516,-37603084.564208984,-14516412.734985352,-19244762.420654297,-19675121.307373047,-25304807.662963867,-16065357.208251953,-16881877.899169922,-20427417.755126953,-17367391.58630371,-20654375.076293945,-23036685.943603516,-33879146.575927734,-909786.8204116821,-25456972.122192383,-6951661.586761475,-6794473.171234131,-6971516.6091918945,-20082578.659057617,-13517811.77520752,-8465658.187866211,-25462779.998779297,1900790.2145385742,8490464.210510254,-11754118.919372559,-6673345.565795898,-4850550.651550293,-11173455.238342285,-33507019.04296875,-4132821.559906006,-49207172.39379883,-19813234.329223633,-36435012.81738281,-11440690.994262695,-7592331.409454346,-5350215.435028076,1384261.8465423584,-21792337.41760254,15430706.024169922,-15501318.93157959,-19927051.544189453,-19422164.916992188,-22278903.96118164,-21371015.548706055,-13408221.244812012,-12957767.486572266,-18585557.93762207,-3424568.8915252686,-2957587.242126465,-19083328.247070312,-18754756.927490234,-19836235.04638672,-17450454.711914062,2469512.462615967,3004777.9083251953,1061829.3285369873,-19768575.66833496,-19860416.412353516,-15444620.132446289,3569381.2370300293,4100425.7202148438
0.26,-12196841.2399292,-24927635.192871094,-19955699.920654297,-8319660.186767578,-11668537.139892578,-16725145.33996582,-20263776.779174805,-12177135.467529297,-12818614.959716797,-13089991.569519043,-11355267.524719238,-14460764.88494873,-17815786.361694336,-26963916.778564453,-3827106.237411499,-22749191.284179688,-6044718.265533447,-5983492.851257324,-3690975.4276275635,-16275533.676147461,-11182327.270507812,-8340884.208679199,-23236745.834350586,-1972733.736038208,876392.2452926636,-11846058.84552002,-7681940.078735352,-4491479.396820068,-9641477.584838867,-30208219.528198242,-7585074.901580811,-52296566.009521484,-25110509.872436523,-37601451.8737793,-14819214.820861816,-9204147.338867188,-5218420.505523682,1210725.4266738892,-26190448.760986328,14563287.734985352,-19983150.482177734,-25199184.41772461,-24763713.836669922,-26636783.599853516,-24435510.635375977,-15415856.36138916,-14272190.09399414,-20259004.592895508,-8527771.949768066,-11372423.17199707,-24530778.884887695,-24208171.844482422,-25233192.443847656,-20716781.616210938,-4008138.656616211,-3645071.7449188232,-5016286.373138428,-25316698.07434082,-25343120.574951172,-18871633.529663086,-3010181.427001953,-2167451.6201019287
0.265,-2495896.816253662,-13542900.085449219,-7527480.125427246,-6500852.584838867,-7223735.332489014,-15613385.200500488,-17266477.584838867,-10946817.398071289,-11435606.956481934,-9645134.925842285,-8500393.867492676,-10040421.485900879,-11850114.822387695,-16798416.137695312,-3602410.5548858643,-19430461.883544922,-6107721.328735352,-6076954.364776611,-3093240.0226593018,-14280508.995056152,-9057050.704956055,-4873613.357543945,-16626892.08984375,-2250185.012817383,-1737953.782081604,-11370954.513549805,-8435860.633850098,-4183828.830718994,-7884764.671325684,-26481306.076049805,-6522647.857666016,-50238956.451416016,-22237840.65246582,-33443145.751953125,-14646899.223327637,-8857720.375061035,-4961247.444152832,730280.6973457336,-26992580.41381836,16929018.020629883,-18787349.700927734,-22420568.466186523,-22152027.130126953,-26480916.97692871,-23946622.848510742,-14340659.141540527,-12649510.383605957,-17655033.111572266,-8373863.220214844,-13323289.87121582,-21806697.845458984,-21714519.500732422,-22628335.95275879,-18037017.822265625,-2865239.6202087402,-2512626.4095306396,-3599487.543106079,-22616428.37524414,-22553583.1451416,-16010192.87109375,-1759241.223335266,-613184.3328475952
0.27,-8771524.429321289,-17332490.921020508,-8616896.629333496,-10095960.61706543,-8234284.400939941,-18790636.06262207,-18908393.85986328,-12991149.90234375,-13354001.998901367,-11320774.07836914,-9667192.459106445,-9193851.470947266,-7995224.475860596,-8096757.888793945,-1443293.4522628784,-18412769.317626953,-7327270.984649658,-7226533.889770508,-4853517.532348633,-14745836.25793457,-7719878.196716309,733005.8813095093,-8553556.442260742,222803.5181760788,2194607.2578430176,-10824827.194213867,-8522463.79852295,-3975315.809249878,-6867113.11340332,-24789449.69177246,-2075546.5030670166,-43826560.974121094,-13526242.25616455,-26490468.978881836,-11061625.480651855,-6725200.176239014,-4615224.361419678,422319.08440589905,-24935426.712036133,20193449.020385742,-13621355.056762695,-13873218.536376953,-13760660.171508789,-21801082.611083984,-20730466.842651367,-11968703.269958496,-10283171.653747559,-14037119.86541748,-4208503.246307373,-8771389.961242676,-13203433.990478516,-13266970.63446045,-14171304.702758789,-13276557.922363281,3458635.5686187744,3935688.9724731445,2666609.764099121,-13914293.28918457,-13828375.816345215,-10860199.928283691,4736931.800842285,5898866.176605225
0.275,-20076213.836669922,-26689292.907714844,-15889983.177185059,-15054312.705993652,-11834787.368774414,-22650732.040405273,-22216392.517089844,-16182912.826538086,-16524770.736694336,-15112346.649169922,-12734486.57989502,-10609415.054321289,-6712601.184844971,-3037909.2693328857,387608.1109046936,-18950460.43395996,-8916983.604431152,-8755402.565002441,-7018199.443817139,-16359630.584716797,-7535552.978515625,5084484.577178955,-2091165.542602539,2458332.300186157,7287841.320037842,-10217473.030090332,-8256711.006164551,-3784441.9479370117,-6763206.958770752,-24842449.188232422,1388567.566871643,-37643909.4543457,-5558284.282684326,-20795114.517211914,-7087788.105010986,-4436460.018157959,-4277079.105377197,755174.6964454651,-23357751.846313477,21545011.520385742,-9734448.432922363,-5998755.931854248,-6036074.638366699,-16351356.506347656,-17535051.345825195,-10234539.031982422,-9270607.948303223,-12960248.947143555,-1312391.6387557983,-4299473.285675049,-5337163.44833374,-5293088.436126709,-6353776.454925537,-10072769.165039062,7983425.140380859,8461010.932922363,6893253.326416016,-5878993.988037109,-5891611.099243164,-7405287.265777588,9315477.37121582,10202455.520629883
0.28,-29148656.845092773,-35413135.52856445,-24097547.53112793,-19706281.661987305,-16319128.036499023,-24703746.795654297,-25279409.408569336,-19617715.83557129,-20100479.125976562,-19937341.690063477,-16679483.413696289,-13717797.27935791,-8858442.306518555,-4384691.23840332,953549.325466156,-20065736.770629883,-10531990.051269531,-10359308.242797852,-9342360.496520996,-18712820.053100586,-8907860.75592041,5773775.577545166,-778544.1875457764,3118462.8009796143,9852640.151977539,-10025700.569152832,-8364047.050476074,-3685405.969619751,-7357612.609863281,-26088659.286499023,2447661.3998413086,-35237277.98461914,-1915641.4270401,-19385560.989379883,-4929620.265960693,-2731694.221496582,-4135929.584503174,1575117.826461792,-22680110.931396484,20885915.756225586,-8920394.897460938,-2284014.7018432617,-2455388.069152832,-12754460.334777832,-15235357.284545898,-8421052.932739258,-8658078.19366455,-13549057.960510254,-688121.9744682312,-2631431.5795898438,-1674968.1234359741,-1476759.1953277588,-2738568.7828063965,-6502136.23046875,9738297.462463379,9979148.864746094,8209455.490112305,-2154942.035675049,-2235721.1112976074,-3908397.1977233887,10942821.502685547,11534534.454345703
0.285,-39101005.55419922,-46282131.19506836,-34749465.94238281,-24865200.04272461,-21538747.787475586,-26526126.861572266,-28791030.883789062,-23256116.86706543,-23939334.869384766,-25592449.188232422,-20679227.828979492,-17747200.01220703,-13800307.273864746,-12289991.37878418,526001.9898414612,-22025936.126708984,-12014765.739440918,-11802973.747253418,-12058185.577392578,-21498685.836791992,-10960744.857788086,3777956.008911133,-5682146.5492248535,2868539.810180664,10967378.616333008,-10764769.554138184,-8934600.830078125,-3749384.641647339,-8097104.072570801,-28593894.958496094,2691135.883331299,-37396560.66894531,-1768095.2548980713,-22409362.79296875,-4644122.60055542,-1311362.862586975,-4196774.005889893,2258725.166320801,-21146026.611328125,19572589.874267578,-9511559.48638916,-1959779.143333435,-2151418.685913086,-11033113.479614258,-13216842.651367188,-5624340.534210205,-6901638.507843018,-13099181.175231934,587990.939617157,-1413116.216659546,-1237272.5009918213,-1128991.8422698975,-2443809.5092773438,-539628.9229393005,12670208.930969238,12692327.499389648,10666910.171508789,-1877013.5641098022,-1827797.293663025,1781159.0433120728,13649259.567260742,14179666.519165039
0.29,-46441055.29785156,-54195213.317871094,-41922134.39941406,-28192790.985107422,-24311830.520629883,-28696115.493774414,-31337707.51953125,-25186525.344848633,-25960430.145263672,-28061000.82397461,-21585355.758666992,-18963916.778564453,-16315877.914428711,-18646480.560302734,-1162802.815437317,-24013168.334960938,-12676534.652709961,-12391467.094421387,-13199521.0647583,-22431133.270263672,-11518850.326538086,2047739.7441864014,-11756888.389587402,1522224.4262695312,10406405.448913574,-11898437.5,-9315843.58215332,-3728625.535964966,-7995913.505554199,-30819202.423095703,1877278.447151184,-42307769.775390625,-4130995.273590088,-27077636.71875,-6004657.26852417,-615315.0200843811,-4124512.6724243164,2387517.4522399902,-19552398.681640625,18149404.525756836,-11087306.97631836,-4200413.703918457,-4278245.92590332,-11392152.786254883,-12342142.105102539,-3791893.482208252,-5161276.817321777,-11964496.612548828,2226634.979248047,-1037428.9751052856,-3198010.6830596924,-3332135.4389190674,-4494941.234588623,3264085.054397583,15764335.632324219,15864386.558532715,13559115.409851074,-4062999.725341797,-3826527.3571014404,5347048.282623291,16568468.09387207,17262117.385864258
0.295,-36639373.779296875,-43565895.080566406,-31140758.514404297,-24768695.831298828,-19778871.536254883,-27717828.75061035,-28779539.108276367,-22748018.264770508,-23480304.718017578,-22232381.82067871,-16580369.94934082,-13791694.641113281,-11060951.232910156,-12789162.635803223,-4354022.50289917,-23594903.94592285,-12068233.489990234,-11801902.770996094,-10396301.26953125,-19258884.42993164,-9646483.421325684,2086966.0377502441,-11320927.619934082,-1872194.4093704224,4227069.37789917,-12346776.008605957,-9288589.477539062,-3322080.612182617,-6563475.608825684,-29816690.44494629,-2351629.7340393066,-46080322.265625,-9553508.758544922,-29808343.8873291,-9327661.514282227,-1866782.1884155273,-3667096.1380004883,2058038.7115478516,-21141078.94897461,16727615.356445312,-14973543.167114258,-9659473.419189453,-9660570.14465332,-14916377.067565918,-14451623.916625977,-5474003.791809082,-5809943.675994873,-12725744.247436523,22394.79310810566,-6006701.469421387,-8531586.647033691,-8720810.890197754,-9678249.35913086,-1397317.886352539,12361802.101135254,12701805.114746094,10567221.641540527,-9419649.124145508,-9219828.605651855,550201.7736434937,13154253.005981445,14017315.864562988
0.3,-6565800.666809082,-12264698.028564453,-1351307.988166809,-14636073.112487793,-9023548.126220703,-20979305.267333984,-20363304.138183594,-16636751.174926758,-17341846.466064453,-10089115.142822266,-8203609.466552734,-4856069.087982178,-666457.9510688782,4155980.110168457,-7177596.569061279,-19843240.73791504,-10922134.399414062,-10827166.557312012,-5075597.286224365,-13784907.341003418,-7268377.304077148,2729705.0952911377,-3396082.878112793,-5808208.94241333,-7738343.238830566,-11877823.829650879,-9535042.762756348,-2734681.8447113037,-4836842.5369262695,-25494653.701782227,-9438733.100891113,-45934486.389160156,-16930812.83569336,-29111364.364624023,-13662452.697753906,-4796029.090881348,-3123044.25239563,1617357.3732376099,-26371149.06311035,15911209.106445312,-20580701.82800293,-17212709.426879883,-17337249.755859375,-20427827.835083008,-18655517.578125,-9452677.726745605,-8593510.627746582,-15528011.322021484,-6843323.707580566,-16632057.189941406,-16324651.718139648,-16308877.944946289,-17198974.609375,-12334882.736206055,1202155.7092666626,1580255.389213562,307233.2739830017,-17042814.254760742,-17041618.34716797,-10533256.530761719,2148680.4485321045,3010554.075241089
0.305,21521083.83178711,15578014.373779297,24252618.78967285,-5233065.128326416,-693833.05311203,-12044411.659240723,-11823249.816894531,-11368659.973144531,-12165492.057800293,-1296942.949295044,-3282112.5984191895,161071.22600078583,5400393.962860107,17001409.53063965,-6515202.045440674,-15132030.487060547,-10279903.411865234,-10380221.366882324,-2033663.034439087,-11031779.289245605,-6967936.5158081055,2352511.6443634033,3713985.4431152344,-6287212.371826172,-16774761.199951172,-11102062.225341797,-10413229.942321777,-2542217.254638672,-4459977.149963379,-22244874.954223633,-14398382.186889648,-44029129.02832031,-21920276.641845703,-26593971.252441406,-16048271.179199219,-6878472.328186035,-3021409.034729004,1338984.8470687866,-30815156.936645508,15866473.197937012,-24635278.701782227,-22431121.826171875,-22784963.607788086,-23676219.940185547,-21062641.143798828,-11505545.616149902,-10504618.644714355,-17331930.16052246,-12728862.762451172,-25119636.53564453,-21907501.220703125,-21730377.197265625,-22698348.999023438,-19486019.134521484,-8549586.296081543,-8367137.908935547,-8723226.547241211,-22568088.53149414,-22568328.857421875,-17903711.318969727,-7403253.078460693,-6701453.20892334
0.31,20454587.936401367,12655088.424682617,20283054.35180664,-4389508.7242126465,-2673761.1293792725,-8399802.207946777,-10375932.693481445,-11174530.029296875,-12093879.699707031,-3831651.9260406494,-6280373.096466064,-3525664.5679473877,1195468.9025878906,12588186.264038086,-2011539.6976470947,-13120421.409606934,-10313348.770141602,-10477750.778198242,-4291346.549987793,-13894224.166870117,-9083309.173583984,1195401.1917114258,1873677.6113510132,-1707480.0729751587,-13223606.10961914,-10565773.010253906,-11050354.957580566,-2898529.052734375,-5696287.155151367,-24249547.958374023,-13034379.005432129,-44567569.732666016,-20718130.111694336,-25198225.021362305,-14220443.725585938,-5933089.733123779,-3362165.4510498047,1343228.2209396362,-29588264.46533203,15790605.545043945,-24324691.772460938,-21423915.86303711,-21839756.01196289,-21862247.467041016,-19527996.063232422,-9627440.452575684,-9372517.585754395,-15889816.284179688,-11785588.264465332,-23146759.033203125,-20983982.08618164,-20920238.494873047,-21960758.209228516,-16798200.607299805,-7282039.165496826,-7179801.940917969,-7519565.582275391,-21850791.931152344,-21595647.81188965,-15363349.914550781,-6052795.886993408,-5542782.783508301
0.315,-10760890.96069336,-20069841.384887695,-11634901.04675293,-12575364.112854004,-13837158.203125,-13956354.141235352,-17603750.228881836,-16298664.093017578,-17204021.453857422,-15912988.662719727,-15112136.840820312,-13083439.826965332,-9444881.439208984,-4979370.594024658,2557878.017425537,-15611032.485961914,-10770404.815673828,-10876845.359802246,-9942131.042480469,-20204385.75744629,-11999847.412109375,798732.0423126221,-6910490.5128479,4269492.626190186,1276871.4427947998,-10616766.929626465,-10528838.157653809,-3287430.52482605,-7280471.8017578125,-30311723.709106445,-6791115.283966064,-46783096.31347656,-14439356.803894043,-26319225.311279297,-9522215.843200684,-2776117.3248291016,-3604784.9655151367,1579371.8099594116,-22933420.181274414,15406725.883483887,-19751750.946044922,-15236667.63305664,-15422596.93145752,-17417875.289916992,-16641954.42199707,-6312955.379486084,-6185908.794403076,-12453960.418701172,-4829346.656799316,-11343818.664550781,-14548450.469970703,-14706283.569335938,-15754135.131835938,-9040265.083312988,3483197.2122192383,3787423.3722686768,2483595.609664917,-15638225.555419922,-15267485.618591309,-7481317.520141602,4607893.466949463,5006668.0908203125
0.32,-45617015.83862305,-54788322.44873047,-44716480.25512695,-23269002.91442871,-25791107.177734375,-24711122.512817383,-28174362.182617188,-23260576.248168945,-23986064.910888672,-28450748.443603516,-23708772.659301758,-21796262.741088867,-18367633.819580078,-19960136.41357422,3480147.123336792,-21221523.28491211,-11799836.158752441,-11843794.822692871,-14637742.99621582,-25531162.26196289,-14519758.224487305,1481268.7635421753,-13835982.322692871,6786121.845245361,14307437.896728516,-11554364.204406738,-9385993.003845215,-3255858.4213256836,-8294348.71673584,-35436454.77294922,-1197037.3392105103,-46063968.658447266,-8208427.429199219,-28654119.49157715,-5795273.303985596,-233480.00645637512,-3479997.6348876953,1839152.8129577637,-16416271.209716797,15381835.9375,-14095470.428466797,-8973905.563354492,-8811882.019042969,-15208045.00579834,-16290918.350219727,-5065024.852752686,-3745533.227920532,-10188307.762145996,1745330.2145004272,862592.1607017517,-8041207.313537598,-8215995.788574219,-9323419.570922852,-4979039.192199707,13158584.594726562,13657213.21105957,11377935.409545898,-9083963.394165039,-8965258.598327637,-3063482.2845458984,14081399.917602539,14487752.914428711
0.325,-57872417.44995117,-66528839.111328125,-55503799.43847656,-28983407.974243164,-30969261.169433594,-31546556.47277832,-34234241.4855957,-27417156.219482422,-27943531.036376953,-33411952.97241211,-27066881.17980957,-25107297.897338867,-21535121.91772461,-23123249.053955078,1525849.461555481,-25745582.580566406,-13109335.899353027,-13146821.975708008,-15711622.23815918,-27216184.616088867,-16398019.790649414,1456107.3780059814,-15013378.143310547,5400918.006896973,16102615.356445312,-12816032.409667969,-8862504.005432129,-3011384.7255706787,-8969760.89477539,-36519588.470458984,-759514.0337944031,-43087665.55786133,-6264403.820037842,-29801431.65588379,-5462937.831878662,41328.91818881035,-3343023.7770080566,1938339.2333984375,-15669096.946716309,15310883.522033691,-12166209.22088623,-6948958.396911621,-6609910.488128662,-16889005.661010742,-18729042.053222656,-6489833.354949951,-3991908.7886810303,-11267777.442932129,2184071.7792510986,3814153.6712646484,-6050618.1716918945,-6000838.279724121,-7273808.479309082,-7365892.8871154785,13750016.212463379,14154217.720031738,11733450.889587402,-6854215.145111084,-7016297.817230225,-5171221.2562561035,14555895.805358887,15045931.816101074
0.33,-44536357.87963867,-53995323.181152344,-43580101.013183594,-26565313.3392334,-27827852.249145508,-28517574.310302734,-31697687.14904785,-26056829.45251465,-26512126.922607422,-29295860.290527344,-24061576.84326172,-22555046.08154297,-20017379.760742188,-18628124.237060547,302296.81730270386,-25133424.758911133,-13369214.057922363,-13430315.017700195,-13516428.94744873,-25336286.544799805,-16922307.96813965,-464817.19613075256,-14386949.53918457,3515430.9272766113,8915531.158447266,-12902450.561523438,-9072346.687316895,-2980893.850326538,-9284244.537353516,-34329460.14404297,-5379818.439483643,-44307723.99902344,-8713707.92388916,-29038560.86730957,-7703521.251678467,-1208899.736404419,-3498810.291290283,1895170.80783844,-20672092.43774414,13642482.75756836,-16445533.752441406,-9377436.637878418,-9171247.482299805,-19938173.294067383,-21048274.993896484,-8669967.651367188,-6454544.544219971,-15249013.900756836,-3852596.5213775635,-3859945.297241211,-8706523.895263672,-8452069.282531738,-9798549.65209961,-12061357.498168945,6831472.873687744,7023547.649383545,5076197.624206543,-9355012.893676758,-9440320.014953613,-9908401.489257812,7716645.71762085,8269885.063171387
0.335,-23157543.182373047,-33537296.295166016,-24779672.622680664,-19130619.049072266,-20037944.793701172,-20176191.329956055,-24487386.70349121,-20953262.329101562,-21453386.306762695,-20866674.423217773,-17496860.50415039,-16444812.774658203,-15502567.291259766,-12995845.794677734,657027.7214050293,-20466730.11779785,-12116125.106811523,-12193687.438964844,-10285573.959350586,-21606012.34436035,-14784671.783447266,-1529999.852180481,-13930595.397949219,2850644.826889038,1808451.2948989868,-11484883.308410645,-9124357.223510742,-3115362.6441955566,-8225063.323974609,-30608928.680419922,-9819509.506225586,-49402851.10473633,-12326746.940612793,-28129707.33642578,-10306633.949279785,-2469033.2412719727,-3648455.6198120117,1799819.9462890625,-25215072.631835938,11440552.711486816,-22392911.911010742,-13032149.314880371,-13156519.889831543,-21548868.17932129,-21558839.797973633,-9916864.395141602,-8503692.626953125,-18837537.76550293,-10571034.43145752,-13226942.06237793,-12505429.2678833,-12294880.867004395,-13419589.99633789,-14356457.710266113,558754.6825408936,751898.0503082275,-872053.0271530151,-13148994.445800781,-12961152.076721191,-12434181.213378906,1656383.3951950073,2176723.9570617676
0.34,-12068532.943725586,-20018180.84716797,-11755178.451538086,-13732329.368591309,-12165889.739990234,-19357038.497924805,-22144634.246826172,-17589303.970336914,-18126554.489135742,-14672839.164733887,-11647145.27130127,-9614638.328552246,-7519772.529602051,-3081812.620162964,-1350846.1713790894,-18948236.4654541,-11601027.488708496,-11660916.328430176,-8370305.061340332,-18052314.75830078,-9585098.266601562,4160832.8819274902,-6581873.416900635,584231.3170433044,-1075033.6647033691,-10891734.12322998,-8993828.773498535,-3044557.571411133,-5307973.861694336,-25572200.775146484,-6868078.708648682,-46429603.576660156,-13842193.603515625,-29046617.50793457,-12242098.808288574,-3189226.6273498535,-3393066.644668579,1586715.817451477,-23139862.060546875,13428424.835205078,-20666217.803955078,-14531153.678894043,-14905813.217163086,-21480081.55822754,-21388523.10180664,-10013391.494750977,-7523573.398590088,-17938631.057739258,-10396273.612976074,-12584021.56829834,-13928448.677062988,-13979723.930358887,-14738328.93371582,-13318104.74395752,1723554.4919967651,2091529.369354248,453974.48539733887,-14584000.587463379,-14337384.223937988,-11472450.256347656,2997168.0641174316,3416910.8867645264
0.345,-14854376.792907715,-15662322.998046875,-4157232.2845458984,-15207483.291625977,-5720781.326293945,-34383239.74609375,-30470264.434814453,-19828544.61669922,-20320009.231567383,-13463158.60748291,-8309263.229370117,-3085909.366607666,5255106.449127197,19993215.560913086,-9928997.993469238,-26501436.233520508,-14519406.31866455,-14495816.230773926,-8497566.223144531,-15523188.591003418,-2294500.3509521484,20021684.646606445,15726440.4296875,-7200491.428375244,-3611534.1186523438,-13607584.953308105,-9845528.602600098,-2723446.3691711426,-1730892.7774429321,-18759031.295776367,6493618.965148926,-27149238.58642578,-12788231.84967041,-31469783.782958984,-13943597.793579102,-3700343.370437622,-2925878.0479431152,1170403.8381576538,-15170042.037963867,22215166.091918945,-7521806.240081787,-13330024.719238281,-13636544.227600098,-21114877.700805664,-21920755.38635254,-9637160.301208496,-3703439.950942993,-11889733.31451416,-1550888.7767791748,489265.71011543274,-12522578.239440918,-12834804.53491211,-13455516.815185547,-11046545.028686523,9777585.02960205,10183400.15411377,8679916.381835938,-13176070.213317871,-13088095.664978027,-9017406.463623047,11086903.57208252,11441787.719726562
0.35,-22234464.645385742,-14195265.769958496,4569774.150848389,-21833816.528320312,662047.9226112366,-59233745.57495117,-45032665.25268555,-25761892.318725586,-26156753.540039062,-14566774.368286133,-5614804.267883301,4110132.2174072266,21799879.07409668,55873489.37988281,-24236139.29748535,-40125328.063964844,-20213336.944580078,-20043355.94177246,-9292602.5390625,-13116394.996643066,5579512.596130371,41819766.998291016,48658439.63623047,-20473180.770874023,-10381855.964660645,-18835365.295410156,-12204080.581665039,-2490939.6171569824,959139.7047042847,-10939779.281616211,24872209.548950195,-1212696.1946487427,-11754315.376281738,-33883739.47143555,-16108243.942260742,-4301844.596862793,-2743023.157119751,752767.0860290527,-7955781.936645508,33146335.60180664,8994060.516357422,-12093342.781066895,-12040197.372436523,-21631477.35595703,-22790149.688720703,-9506002.426147461,-169488.48962783813,-5371440.887451172,8652023.315429688,15340885.162353516,-11115541.458129883,-11487601.280212402,-12272434.23461914,-9998795.509338379,17154615.40222168,17407089.233398438,16400327.682495117,-11826419.830322266,-11784726.1428833,-7786404.132843018,18399021.14868164,18779956.817626953
0.355,-25991273.880004883,-11748163.223266602,15220657.348632812,-28251436.233520508,7155443.19152832,-79705665.5883789,-56443420.41015625,-30524919.509887695,-30836099.62463379,-14300518.989562988,-1783124.4468688965,11769037.246704102,37046340.94238281,89401466.3696289,-38740554.80957031,-51139095.306396484,-25195842.742919922,-24872806.549072266,-9100352.28729248,-9959509.84954834,12234380.722045898,59454555.51147461,75876480.10253906,-34661651.611328125,-20202167.510986328,-23330265.045166016,-14902503.01361084,-2510743.3795928955,2523911.476135254,-4302661.895751953,38102470.39794922,13826876.640319824,-13527156.829833984,-36453475.95214844,-18893352.508544922,-4896387.100219727,-2864285.707473755,673525.1545906067,-6184868.335723877,38404487.60986328,17126722.33581543,-13694426.536560059,-13306863.784790039,-23323123.931884766,-22915960.31188965,-9718838.691711426,494880.64646720886,-3980056.047439575,10888031.959533691,19380607.60498047,-12661656.379699707,-12852545.738220215,-13756345.748901367,-10774191.856384277,16651741.027832031,16839118.95751953,16189159.393310547,-13404216.766357422,-13242236.137390137,-8647667.88482666,17821613.311767578,18280332.565307617
0.36,-28510524.74975586,-12101050.37689209,20071660.9954834,-32323661.80419922,10133527.755737305,-88847976.68457031,-61347515.10620117,-32613945.00732422,-32886356.353759766,-13276214.599609375,980936.1100196838,16022670.74584961,43959915.16113281,103185997.00927734,-48282001.49536133,-55803909.30175781,-27574962.615966797,-27128786.087036133,-8335354.804992676,-7515942.096710205,15270428.657531738,64988838.19580078,84310089.11132812,-44525436.40136719,-28068088.53149414,-25380773.544311523,-16402261.734008789,-2511428.117752075,3396491.527557373,-1246684.4320297241,40309448.2421875,13440498.352050781,-17343509.674072266,-40411117.55371094,-21616586.685180664,-4984947.204589844,-2815958.7383270264,908635.6163024902,-7880111.6943359375,35760009.765625,14446630.477905273,-17324132.919311523,-16925611.49597168,-25035722.732543945,-21791221.618652344,-9324870.109558105,-651714.563369751,-7570672.512054443,4845268.726348877,12452171.325683594,-16320444.107055664,-16235212.326049805,-16955959.32006836,-11154498.100280762,9738861.083984375,10091606.140136719,9170969.009399414,-16888771.057128906,-16731878.280639648,-9327603.340148926,10846632.957458496,11371955.871582031
0.365,-36521141.052246094,-20277744.29321289,12792744.636535645,-36322807.31201172,6026257.038116455,-91648704.5288086,-64102096.55761719,-34537761.68823242,-34833019.2565918,-15030815.124511719,-974128.9615631104,12981994.62890625,39452739.71557617,94513336.18164062,-51752063.7512207,-58051078.79638672,-28679479.598999023,-28112146.377563477,-8865045.547485352,-8337219.23828125,13166066.16973877,59083637.23754883,75896209.71679688,-48028747.55859375,-30941600.799560547,-25918636.322021484,-16364974.975585938,-2172556.161880493,3351016.5214538574,-2775069.9520111084,34368183.13598633,7740226.745605469,-18955104.82788086,-44232276.916503906,-22696054.458618164,-3807931.423187256,-2333022.8328704834,1070018.2914733887,-8583272.933959961,30154254.913330078,8615158.081054688,-18671159.744262695,-18511674.880981445,-24103216.17126465,-19189430.236816406,-7156765.937805176,-467493.9513206482,-10271432.876586914,-297300.69637298584,5890520.095825195,-17704982.75756836,-17472730.63659668,-17934114.456176758,-8224400.520324707,5356130.599975586,5894528.388977051,4367207.050323486,-17983983.993530273,-18049440.383911133,-6658618.450164795,6388046.741485596,6923862.457275391
0.37,-47962715.14892578,-32604137.420654297,-1086360.6929779053,-41035617.82836914,-2459300.2796173096,-94143157.95898438,-67537002.56347656,-37219417.572021484,-37599292.75512695,-19568784.713745117,-6506715.297698975,5129594.802856445,28831497.192382812,77303291.32080078,-51250850.677490234,-60875297.54638672,-29778972.625732422,-29093429.565429688,-10893264.770507812,-12047323.226928711,7831052.303314209,49471599.57885742,62959281.92138672,-46919990.53955078,-29732471.466064453,-25748746.871948242,-15446655.2734375,-1527056.9324493408,2176482.915878296,-7151616.57333374,27104455.947875977,4273437.976837158,-15793020.248413086,-43604156.494140625,-20771039.962768555,-1147614.3598556519,-1652913.212776184,999461.5316390991,-7615211.009979248,26832509.994506836,5980578.899383545,-15280494.689941406,-15230649.948120117,-18883352.279663086,-15222843.170166016,-3676731.824874878,2031309.6046447754,-7939268.589019775,2141425.609588623,7051551.818847656,-14324671.745300293,-14180800.437927246,-14684213.638305664,-2817535.877227783,8612433.433532715,9147387.504577637,7389958.85848999,-14557824.13482666,-14767236.709594727,-1367869.0195083618,9569540.023803711,10007645.606994629
0.375,-51667350.76904297,-37814144.134521484,-7777998.924255371,-42809616.08886719,-7335721.969604492,-94695732.11669922,-67971595.76416016,-37663917.541503906,-38132236.48071289,-21778860.092163086,-9436723.709106445,578267.3954963684,22146125.79345703,67623405.45654297,-49335544.58618164,-61134128.57055664,-29925695.419311523,-29224714.279174805,-12066483.497619629,-14599899.291992188,4053581.2377929688,43589748.38256836,55209758.75854492,-44546741.4855957,-27321104.049682617,-24391347.885131836,-14392583.847045898,-888532.280921936,1071151.7333984375,-10331567.764282227,22200283.05053711,122854.21788692474,-11443735.122680664,-37474822.998046875,-16931495.666503906,1656281.7096710205,-1107039.9284362793,1009498.9538192749,-7606441.497802734,26213043.212890625,4824984.073638916,-10942437.171936035,-10634731.29272461,-12123023.986816406,-11573530.197143555,-1292727.5896072388,4549618.721008301,-3276336.431503296,7800216.6748046875,10447041.511535645,-10000205.993652344,-10064818.382263184,-10888124.465942383,-501237.690448761,13612143.516540527,14037980.079650879,12643736.839294434,-10559249.877929688,-10623397.827148438,868088.3646011353,14539608.9553833,14759565.353393555
0.38,-43011775.970458984,-31153865.814208984,-1459791.660308838,-39272251.12915039,-4606690.883636475,-90024139.40429688,-62568519.592285156,-34140258.7890625,-34609771.728515625,-18343801.498413086,-6318395.614624023,3683640.956878662,23987247.467041016,68865211.4868164,-47728298.18725586,-56341484.06982422,-28444078.44543457,-27888378.143310547,-10653165.817260742,-13085558.891296387,4781844.615936279,42979293.82324219,53328590.393066406,-43357948.303222656,-26154041.290283203,-22324115.753173828,-13813484.191894531,-530827.0454406738,1674741.268157959,-9382021.9039917,19280239.10522461,-7307706.356048584,-12286912.91809082,-31555141.44897461,-14764857.292175293,2435382.36618042,-789731.4429283142,1325670.9575653076,-9319787.02545166,26067443.84765625,1326953.2918930054,-12040762.901306152,-11264396.667480469,-9472857.475280762,-11003591.537475586,-1934830.4271697998,4808855.5335998535,-1780763.2684707642,8235315.322875977,7628357.410430908,-11145921.70715332,-11326403.617858887,-12372236.251831055,-5549045.085906982,11411926.26953125,11786169.052124023,10891697.883605957,-12059230.80444336,-11886911.392211914,-4320551.39541626,12340950.012207031,12353688.24005127
0.385,-33771266.93725586,-23369070.053100586,6809129.238128662,-34867034.912109375,-48262.42849230766,-83926467.89550781,-56521289.82543945,-30395729.064941406,-30766504.287719727,-13525549.88861084,-1747913.2413864136,8963954.92553711,28277173.99597168,71494728.0883789,-46887195.5871582,-51202377.31933594,-27110925.674438477,-26718355.178833008,-8347579.9560546875,-9868556.022644043,7680777.072906494,44130359.6496582,52653278.35083008,-43295078.27758789,-26419633.865356445,-21621671.676635742,-14016792.297363281,-520815.31286239624,3663160.562515259,-5945667.266845703,17955516.815185547,-12244723.320007324,-19015138.626098633,-32080432.891845703,-16428646.087646484,755925.8937835693,-702899.3368148804,1639301.6576766968,-10163815.49835205,25665775.299072266,-2630685.329437256,-19021741.86706543,-17865314.483642578,-12971390.724182129,-14138539.31427002,-4641989.231109619,3495363.235473633,-4276371.479034424,3554229.0210723877,1052274.5847702026,-18168922.424316406,-18284049.98779297,-19269674.30114746,-14427309.9899292,3211194.0383911133,3549077.272415161,2836039.3047332764,-19084388.732910156,-18866273.880004883,-13343708.038330078,4110105.514526367,4124534.1300964355
0.39,-38376140.59448242,-28464996.337890625,2299229.860305786,-35774665.83251953,-1886696.219444275,-82769927.97851562,-56897544.860839844,-30935619.354248047,-31207130.432128906,-14059066.772460938,-2500838.041305542,8124166.488647461,26239011.764526367,66344810.485839844,-45712169.6472168,-51402091.97998047,-27468172.073364258,-27052446.365356445,-8151528.358459473,-9605687.141418457,8212246.894836426,43785778.0456543,50009887.6953125,-42246307.373046875,-25542596.8170166,-22745819.091796875,-14438476.5625,-722085.2375030518,4891149.044036865,-4581936.359405518,19514093.39904785,-8870619.773864746,-24555387.496948242,-37396919.25048828,-19433561.325073242,-1063310.8615875244,-862542.1524047852,1555953.7410736084,-8160360.336303711,25969635.009765625,-1603620.5291748047,-24604492.1875,-23254623.413085938,-18056495.666503906,-17930049.896240234,-6524144.649505615,3035961.389541626,-6221609.592437744,2389640.0928497314,1191659.927368164,-23706842.42248535,-23683395.385742188,-24522907.257080078,-18550779.342651367,-331635.56456565857,-134719.3717956543,-944256.3652992249,-24355344.772338867,-24251852.03552246,-17515693.66455078,496753.39460372925,737126.8272399902
0.395,-53372634.88769531,-43995826.721191406,-13168074.607849121,-40510959.62524414,-9093381.881713867,-85083129.8828125,-61957458.49609375,-33981830.59692383,-34237186.431884766,-19470125.198364258,-7916337.966918945,1579699.7547149658,18502956.39038086,56032440.185546875,-42470020.29418945,-54302429.19921875,-27752346.03881836,-27155998.22998047,-10160030.364990234,-12857845.306396484,5761180.877685547,42777999.87792969,46944976.806640625,-38469356.536865234,-20903135.299682617,-22980398.178100586,-13954434.394836426,-884579.7181129456,4317401.885986328,-6908756.256103516,24510549.545288086,-689354.3601036072,-22622026.443481445,-40000106.81152344,-19473943.71032715,-580837.7861976624,-1123286.1280441284,1231731.0571670532,-4785963.535308838,27551725.387573242,5767442.226409912,-22553602.21862793,-21118013.381958008,-19221176.147460938,-18969850.540161133,-6028732.776641846,4405076.026916504,-4038372.9934692383,9565281.867980957,11380270.004272461,-21508472.442626953,-21430294.036865234,-22254777.908325195,-14272670.74584961,6591047.286987305,6614264.488220215,5715360.641479492,-22012107.849121094,-21957067.489624023,-13163472.175598145,7367246.627807617,7830388.069152832
0.4,-60182178.49731445,-51977821.350097656,-21812864.303588867,-41003120.42236328,-11930125.23651123,-83528121.94824219,-63339309.69238281,-33534374.237060547,-33813476.5625,-22004074.096679688,-10338903.427124023,-1727857.4705123901,14954916.000366211,51631904.60205078,-37492057.80029297,-52752151.48925781,-25444944.381713867,-24750354.766845703,-11366973.876953125,-15242416.381835938,4534133.434295654,44443752.28881836,47608066.55883789,-33208469.39086914,-14329248.428344727,-20341382.98034668,-12432343.482971191,-796855.3900718689,3486166.7156219482,-9162345.886230469,30943761.825561523,4809984.20715332,-16027204.513549805,-36982574.462890625,-16438829.42199707,1608607.7690124512,-1155812.7403259277,1142838.2396697998,-2780911.922454834,29902366.638183594,14933263.778686523,-15874138.832092285,-14417735.09979248,-17056262.969970703,-17642580.032348633,-4404060.840606689,6285911.083221436,531318.1281089783,19332204.818725586,22645101.54724121,-14672159.194946289,-14648422.241210938,-15537349.700927734,-7253869.05670166,17180797.576904297,17182996.74987793,16302730.560302734,-15301253.318786621,-15157492.637634277,-5970759.868621826,17951570.510864258,18444261.55090332
0.405,-50582012.17651367,-42961971.282958984,-13714436.531066895,-34269008.63647461,-5571113.586425781,-77150604.24804688,-58753482.818603516,-28384618.759155273,-28639457.70263672,-17481908.798217773,-5841211.795806885,3079883.575439453,20995149.612426758,57978805.54199219,-34015159.606933594,-46835811.614990234,-21861446.380615234,-21244939.80407715,-9931800.842285156,-13576983.451843262,7550149.440765381,49537452.697753906,53039207.458496094,-30034555.435180664,-11318785.667419434,-17191648.483276367,-11198728.561401367,-440460.05606651306,4259455.680847168,-7397697.925567627,35855613.708496094,6326871.395111084,-12789207.458496094,-33779792.78564453,-14784852.981567383,2818496.7041015625,-786739.5281791687,1369920.3729629517,-2703284.26361084,31766267.776489258,20772079.467773438,-12697323.7991333,-11260362.62512207,-16506874.084472656,-17115747.451782227,-3779905.5576324463,7088550.567626953,3205643.41545105,23253257.751464844,25712938.30871582,-11434070.587158203,-11452261.924743652,-12350354.194641113,-5006186.485290527,21522708.892822266,21674720.764160156,20818330.764770508,-12208813.667297363,-11961564.064025879,-3480626.106262207,22304246.90246582,22708484.649658203
0.41,-38958145.14160156,-30156152.725219727,-1334245.204925537,-27764858.24584961,2190497.1599578857,-73959617.6147461,-55605895.99609375,-24528745.651245117,-24722517.013549805,-11646178.245544434,-50013.843923807144,9576416.969299316,28981943.130493164,66184196.47216797,-34940368.65234375,-44425247.19238281,-20974367.141723633,-20409616.470336914,-7713963.508605957,-10289663.314819336,11948664.665222168,54027458.19091797,57932167.053222656,-31160968.780517578,-14169610.977172852,-17292924.880981445,-11273083.686828613,-19818.095490336418,6050726.890563965,-3572858.5720062256,37439399.71923828,7301379.680633545,-15500808.715820312,-36040222.16796875,-17221628.189086914,2065166.4733886719,-252469.86746788025,1532732.9635620117,-3236715.078353882,31208826.065063477,21701904.296875,-15593652.725219727,-14083711.624145508,-19162132.263183594,-18657073.974609375,-4699141.502380371,6601326.942443848,2169853.687286377,20234531.40258789,21825527.19116211,-14363518.714904785,-14302234.649658203,-15181789.39819336,-7742357.7308654785,18733043.670654297,19033306.121826172,18121894.83642578,-15045288.0859375,-14778964.99633789,-5996162.891387939,19531215.66772461,19907510.75744629
0.415,-42232913.970947266,-31736656.188964844,-2719040.632247925,-29592540.740966797,1051098.346710205,-78878288.26904297,-59624580.38330078,-26850111.00769043,-27032909.393310547,-12341898.918151855,-445507.287979126,8883612.632751465,27878158.569335938,64345176.696777344,-39219055.17578125,-49081478.118896484,-23644256.591796875,-22927415.84777832,-7522554.397583008,-9913455.00946045,12428343.772888184,53236476.89819336,55510704.040527344,-35109230.041503906,-18534746.170043945,-20303119.659423828,-11916832.92388916,181681.69260025024,6561334.133148193,-3421460.1516723633,35211406.70776367,7640020.847320557,-19224153.518676758,-41972080.23071289,-20891290.66467285,1132997.2743988037,10690.964758396149,1413180.7088851929,-3861828.088760376,26904478.073120117,18618837.356567383,-19522478.103637695,-17750007.62939453,-21368850.708007812,-20234611.51123047,-6076137.065887451,5501238.822937012,-1063560.6050491333,15191205.024719238,17712417.602539062,-18333286.28540039,-18128604.888916016,-19037401.19934082,-9874588.966369629,14935166.358947754,15255500.793457031,14209954.261779785,-18750928.87878418,-18540477.752685547,-8079558.372497559,15779718.399047852,16190999.984741211
0.42,-55634418.48754883,-45255134.58251953,-16098730.087280273,-37116298.67553711,-7540925.5027771,-85797126.77001953,-65903617.85888672,-32110210.418701172,-32343139.6484375,-18426446.91467285,-5994835.85357666,2165318.489074707,18456775.665283203,53222095.48950195,-42869804.38232422,-54397338.8671875,-26179325.103759766,-25259180.068969727,-9185108.184814453,-12764105.796813965,8350259.780883789,47662425.99487305,46310474.39575195,-38522453.30810547,-19454719.54345703,-22230846.405029297,-11874019.622802734,30304.811894893646,4989487.171173096,-8349105.8349609375,29855754.852294922,3783075.0942230225,-19942703.247070312,-45678276.06201172,-21740333.557128906,1515731.692314148,-199506.014585495,1228421.0920333862,-5375603.675842285,20559051.513671875,12816542.625427246,-20319030.76171875,-18295137.405395508,-20518970.489501953,-20033674.240112305,-6928803.443908691,4245188.236236572,-4352311.611175537,11126074.79095459,14951968.1930542,-19135263.442993164,-18893499.37438965,-19810415.267944336,-8829241.752624512,13073555.946350098,13315134.048461914,12072660.446166992,-19384059.90600586,-19269054.412841797,-7213836.669921875,13966705.322265625,14348016.738891602
0.425,-59629169.46411133,-51239513.3972168,-22729433.059692383,-40271713.25683594,-12382026.672363281,-85820526.12304688,-65757217.40722656,-33291629.791259766,-33542552.947998047,-21389270.782470703,-8909132.957458496,-1258164.1674041748,12260390.281677246,45032241.82128906,-43146587.37182617,-53275520.32470703,-25417711.25793457,-24518804.5501709,-9963019.371032715,-14752390.86151123,4613447.666168213,42703166.96166992,38736717.224121094,-39300773.62060547,-17829710.006713867,-21014513.01574707,-11255215.644836426,-306205.9283256531,3208223.342895508,-12934340.476989746,23894302.368164062,-3638742.208480835,-19570318.2220459,-44905738.830566406,-20122289.657592773,2263371.229171753,-656766.7126655579,1216953.992843628,-7755019.187927246,16544820.785522461,6475203.037261963,-19795881.271362305,-17889204.025268555,-18977293.014526367,-19031702.041625977,-7266633.033752441,3088381.52885437,-6611021.995544434,7513639.450073242,10737245.559692383,-18640359.87854004,-18524234.771728516,-19331398.010253906,-7763110.160827637,11183597.564697266,11333901.405334473,9872550.010681152,-18936899.185180664,-18932344.436645508,-6399207.11517334,12064819.3359375,12345344.543457031
0.43,-46707519.53125,-39837078.09448242,-12920198.440551758,-34435276.03149414,-7518929.958343506,-78698493.95751953,-58465332.03125,-28576971.05407715,-28770763.397216797,-16848777.770996094,-5375388.622283936,3066747.4269866943,15879258.155822754,47107994.079589844,-40454181.67114258,-47233287.8112793,-22544130.325317383,-21884979.248046875,-8292157.173156738,-13106892.585754395,5150537.967681885,42196693.420410156,39062725.06713867,-37397659.30175781,-17651020.050048828,-18702852.249145508,-11039699.55444336,-468500.37574768066,3341479.778289795,-12032533.645629883,20623357.77282715,-8725666.046142578,-20828962.326049805,-42034137.72583008,-19383955.001831055,1898936.152458191,-906159.4605445862,1300845.5038070679,-9459729.194641113,17301361.083984375,2881618.9765930176,-20772565.841674805,-19384752.27355957,-19744386.672973633,-18967105.865478516,-7396709.91897583,2521466.7320251465,-7472272.3960876465,4740528.583526611,6020869.255065918,-19733144.760131836,-19745294.57092285,-20408391.95251465,-9357360.83984375,8950679.779052734,9067705.154418945,7485673.427581787,-20164388.65661621,-20238679.885864258,-8095480.918884277,9804848.670959473,10045962.3336792
0.435,-29892087.936401367,-22672468.185424805,2133951.425552368,-25212017.059326172,881327.6886940002,-71278541.5649414,-51055130.00488281,-22657787.322998047,-22818090.438842773,-9678261.756896973,72271.84623479843,9282023.429870605,22884675.979614258,53313747.40600586,-36638568.87817383,-42522079.46777344,-20527341.842651367,-20044038.772583008,-5606863.021850586,-9855256.080627441,8084110.260009766,44214237.213134766,43850582.122802734,-33747344.970703125,-19012722.01538086,-17716444.01550293,-11253819.465637207,-274427.3245334625,5059728.145599365,-7667850.971221924,20871334.075927734,-8171236.991882324,-22052644.729614258,-39545383.45336914,-20449110.03112793,986966.7291641235,-689022.1238136292,1316322.0882415771,-9420505.52368164,20179695.12939453,3843397.1405029297,-21855213.165283203,-20945013.04626465,-21449977.87475586,-19550785.064697266,-7241489.410400391,2872993.9460754395,-7067007.064819336,4890614.986419678,5617732.048034668,-20956449.508666992,-20938400.268554688,-21582941.05529785,-11439566.612243652,9116993.90411377,9324145.317077637,7838809.967041016,-21435194.01550293,-21516380.310058594,-10110210.418701172,10064502.716064453,10363549.23248291
0.44,-24067834.854125977,-15921853.065490723,7179537.773132324,-20443225.860595703,3953429.2221069336,-67995338.4399414,-48584640.50292969,-20198034.286499023,-20452926.635742188,-6776564.121246338,1619120.1210021973,10110382.080078125,23955636.978149414,54220027.923583984,-33529659.271240234,-41441455.84106445,-20188756.942749023,-19642602.920532227,-4254418.37310791,-8675967.2164917,8938136.100769043,44478511.810302734,45291786.193847656,-30148834.228515625,-18819845.19958496,-17932407.37915039,-11145780.563354492,21882.841363549232,6200114.727020264,-6007607.460021973,21829114.91394043,-5546071.529388428,-21127990.72265625,-38525547.02758789,-21356031.41784668,1047221.7798233032,-254138.91673088074,1320276.141166687,-8429711.34185791,20787681.579589844,7163802.146911621,-21089694.97680664,-20163469.314575195,-21093183.517456055,-19540742.874145508,-6804937.362670898,3620822.1912384033,-6373897.552490234,7510824.680328369,9878969.192504883,-20186618.80493164,-20070434.5703125,-20796400.07019043,-11181977.272033691,11526758.193969727,11953883.171081543,10742491.722106934,-20619569.778442383,-20665496.826171875,-9805013.656616211,12670650.482177734,12998834.609985352
0.445,-30095037.46032715,-22213289.260864258,685174.286365509,-21896442.413330078,638351.8576622009,-67806472.77832031,-49725959.77783203,-21287813.186645508,-21701486.587524414,-9049215.316772461,-711291.3727760315,6001233.100891113,19020088.19580078,49066158.294677734,-32474040.985107422,-41868328.09448242,-20443342.208862305,-19715850.830078125,-4828283.309936523,-10242177.00958252,6754906.177520752,42076995.849609375,41249893.18847656,-28699720.38269043,-16734722.137451172,-18304347.99194336,-10787489.891052246,-42452.652007341385,5606577.396392822,-9174402.236938477,20665742.874145508,-5727389.335632324,-20616146.087646484,-40098464.96582031,-21315416.33605957,1923641.324043274,-188837.28981018066,1461291.0747528076,-7728646.755218506,18498592.376708984,8335329.055786133,-20890104.293823242,-19480123.51989746,-19425325.393676758,-19373703.002929688,-6820171.83303833,3720451.3549804688,-6780753.135681152,8765191.078186035,12816341.400146484,-19765914.916992188,-19703252.7923584,-20441829.681396484,-10264519.691467285,11625867.84362793,12273349.76196289,11273365.020751953,-20179975.509643555,-20226209.64050293,-8988422.393798828,12823639.869689941,13075424.194335938
0.45,-38777225.494384766,-32158443.450927734,-7788149.833679199,-25566799.16381836,-3662036.657333374,-68081176.7578125,-50794063.568115234,-23078044.891357422,-23538190.841674805,-12157032.012939453,-2791028.0227661133,2786015.748977661,15157486.915588379,43779659.271240234,-33262722.01538086,-42058403.01513672,-20577892.303466797,-19762292.861938477,-5920430.1834106445,-12007974.624633789,4695730.686187744,39584205.627441406,36285575.86669922,-29585674.285888672,-15839879.035949707,-18741447.44873047,-10990014.07623291,-586885.6310844421,4337957.382202148,-13169816.970825195,17839904.78515625,-8743577.003479004,-24089721.6796875,-44053497.314453125,-21791181.564331055,2047640.085220337,-781755.6858062744,1683694.60105896,-7644162.178039551,16298770.904541016,4736112.117767334,-24550462.72277832,-22623517.990112305,-19802524.56665039,-20570537.567138672,-8165665.626525879,2680727.958679199,-8867641.44897461,6022769.927978516,9950478.553771973,-23164333.34350586,-23288089.752197266,-23945005.416870117,-12387523.651123047,6937645.435333252,7624450.68359375,6556857.109069824,-23633115.768432617,-23748218.536376953,-11280738.830566406,7892866.611480713,8063068.389892578
0.455,-42471630.09643555,-36857120.513916016,-10835202.21710205,-27127574.920654297,-5142563.343048096,-67050201.416015625,-49859539.03198242,-23336639.404296875,-23675451.278686523,-12621163.368225098,-2510358.0951690674,3330067.6345825195,15899290.084838867,41536457.06176758,-33529132.843017578,-41546554.56542969,-20428482.055664062,-19692647.93395996,-5974561.69128418,-11861536.026000977,5130506.51550293,38639999.38964844,34252777.099609375,-30167133.331298828,-17218053.817749023,-19017705.9173584,-11610828.399658203,-1170180.082321167,3972492.9332733154,-13735029.220581055,15619585.037231445,-11475822.448730469,-29529523.849487305,-46771354.67529297,-23152681.350708008,1064317.4648284912,-1573154.4494628906,1762860.4173660278,-8158646.583557129,16005781.173706055,-1957544.5652008057,-29939455.032348633,-27849220.275878906,-22545259.475708008,-22878822.326660156,-10521917.343139648,1120121.1214065552,-11763308.52508545,1058752.8944015503,3820230.484008789,-28541616.439819336,-28702680.587768555,-29342088.69934082,-17284040.451049805,886132.4191093445,1400792.3603057861,64639.97811079025,-29047927.856445312,-29248369.216918945,-16294490.814208984,1509645.938873291,1703629.1360855103
0.46,-38992126.46484375,-33882740.02075195,-7839272.499084473,-25346912.384033203,-4342344.284057617,-63592460.63232422,-46787578.58276367,-21734483.71887207,-21930654.525756836,-10605977.058410645,-1217725.2769470215,5410970.687866211,18239164.352416992,41035953.521728516,-31229213.71459961,-39443042.75512695,-19550537.109375,-19008411.407470703,-4775293.350219727,-10293282.508850098,6806826.114654541,38268657.68432617,34465389.251708984,-28153299.33166504,-18505481.719970703,-18023826.599121094,-11451925.277709961,-1201043.8442230225,4787941.455841064,-11056264.877319336,14792923.927307129,-12485556.602478027,-31709173.20251465,-44721244.81201172,-23555870.056152344,392570.49560546875,-1728234.1718673706,1607122.6596832275,-9342021.942138672,16534601.211547852,-7169357.776641846,-31917364.1204834,-30058757.781982422,-24315124.51171875,-24134578.704833984,-12264724.731445312,244130.9094429016,-13727825.164794922,-2393006.5631866455,-334413.43903541565,-30836225.509643555,-30782699.584960938,-31528718.948364258,-20957296.37145996,-2245983.362197876,-1956290.364265442,-3424573.6598968506,-31304649.353027344,-31520349.502563477,-20049276.35192871,-1720761.6567611694,-1456092.0000076294
0.465,-31160629.272460938,-26611003.875732422,-1977557.3015213013,-22037130.35583496,-2995737.075805664,-58459583.2824707,-42796840.66772461,-19409029.006958008,-19580902.099609375,-8117190.361022949,-429031.3124656677,6386888.9808654785,18913043.975830078,41114891.052246094,-27637628.55529785,-35814052.58178711,-17922809.600830078,-17601274.490356445,-3259769.6781158447,-8966485.977172852,7501245.975494385,37664314.27001953,35030410.76660156,-24871440.887451172,-18148717.880249023,-15723877.906799316,-10143236.16027832,-500086.4267349243,6083640.575408936,-7960669.040679932,14843302.726745605,-12405195.236206055,-30093017.578125,-40027374.267578125,-22241836.547851562,1018438.8160705566,-914637.6252174377,1405076.3845443726,-10171330.451965332,16910037.994384766,-6988540.172576904,-30072965.621948242,-28599498.748779297,-23271759.033203125,-23231697.08251953,-12055402.755737305,892856.776714325,-13364354.133605957,-2353888.2732391357,-527159.4524383545,-29371305.465698242,-29158853.53088379,-29977268.21899414,-21182863.235473633,-2504582.643508911,-2326427.936553955,-3598227.7393341064,-29842765.80810547,-29951436.99645996,-20373294.830322266,-1840320.9447860718,-1585498.6906051636
0.47,-26300100.326538086,-22225969.314575195,1719087.839126587,-20117145.538330078,-1930934.3099594116,-54814674.377441406,-40454711.9140625,-18017787.93334961,-18207431.79321289,-6736199.855804443,69581.88116550446,6240967.750549316,18299730.30090332,41284320.83129883,-25539720.53527832,-33273487.091064453,-16654720.306396484,-16484088.897705078,-2290665.626525879,-8493044.85321045,7294718.7423706055,37824493.408203125,35538017.27294922,-22998222.35107422,-17007358.55102539,-14130046.844482422,-8808063.507080078,562727.5109291077,7401585.578918457,-6144592.28515625,16009792.32788086,-11097715.377807617,-28996513.36669922,-38432701.110839844,-21222023.010253906,2203162.908554077,311784.68465805054,1411025.1665115356,-8510782.241821289,17890684.127807617,-1332016.2296295166,-28819898.60534668,-27606504.440307617,-21451059.341430664,-21568332.67211914,-10281334.87701416,2893937.587738037,-10729342.460632324,753771.5435028076,2330930.233001709,-28230720.52001953,-28207296.37145996,-28946498.87084961,-19464317.321777344,-1794798.0165481567,-1586761.1169815063,-2592621.8032836914,-28895154.95300293,-28786996.841430664,-18685232.162475586,-1030184.8649978638,-851450.6220817566
0.475,-30657873.153686523,-26582239.151000977,-1294630.8851242065,-20910938.262939453,-1878792.643547058,-54298427.58178711,-41275432.58666992,-18281276.70288086,-18362056.732177734,-6982125.282287598,669775.1879692078,5701914.310455322,17308628.08227539,38857315.06347656,-24542758.94165039,-33702205.657958984,-16552667.617797852,-16391534.805297852,-1935529.4704437256,-8369043.350219727,7567934.989929199,39114253.997802734,35116649.62768555,-21812343.59741211,-15101408.004760742,-14577892.303466797,-8320169.448852539,1412467.360496521,8582781.791687012,-5750665.664672852,18582477.569580078,-8114066.123962402,-29813100.814819336,-41134834.28955078,-21999504.08935547,2905457.2582244873,1102297.9021072388,1614699.0060806274,-3945583.1050872803,19554342.26989746,5505730.152130127,-29642660.14099121,-28446500.778198242,-20980457.305908203,-20918737.411499023,-8592920.303344727,5110840.797424316,-7532405.376434326,5123978.614807129,7097929.47769165,-28883272.171020508,-29190767.288208008,-29829181.671142578,-17707557.678222656,171221.3158607483,484693.6762332916,-611198.5445022583,-29856536.865234375,-29493768.6920166,-16765211.10534668,885774.3144035339,1060483.694076538
0.48,-40757701.8737793,-37143550.872802734,-9728229.522705078,-22821937.561035156,-3691216.7072296143,-53699398.040771484,-42929031.37207031,-19179252.62451172,-19066886.90185547,-8473743.438720703,526004.9700737,4219029.903411865,14674242.973327637,30997970.581054688,-21374900.817871094,-34705486.29760742,-16774553.298950195,-16507244.110107422,-1925311.4461898804,-8376365.661621094,8018386.8408203125,39200866.69921875,31380264.282226562,-18118404.388427734,-11170030.59387207,-15508633.613586426,-8118781.089782715,1745366.8117523193,9197500.228881836,-6717419.147491455,20551328.659057617,-5696130.752563477,-28853713.989257812,-43013248.443603516,-22956491.470336914,3294197.3209381104,1218139.2908096313,1705584.6452713013,501672.625541687,19905767.4407959,8008789.0625,-28844093.322753906,-27518600.463867188,-20992931.365966797,-21200712.203979492,-8115721.702575684,6357334.613800049,-5680946.826934814,8294305.801391602,11790334.701538086,-27926275.2532959,-28259521.484375,-28946880.340576172,-16199924.46899414,3968285.083770752,4400473.117828369,2856703.042984009,-29045494.079589844,-28498226.165771484,-14974799.156188965,4667222.023010254,4955797.19543457
0.485,-44832557.678222656,-43683959.9609375,-15405106.544494629,-23108901.977539062,-6890505.790710449,-48803440.09399414,-41132431.03027344,-19044977.18811035,-18924411.77368164,-10076130.867004395,-1129705.786705017,1396256.446838379,9627449.035644531,20063293.45703125,-15665796.279907227,-32555290.22216797,-16078758.239746094,-15702478.408813477,-2200271.8448638916,-8848385.81085205,6881732.46383667,35426887.51220703,23580516.815185547,-12197662.353515625,-6842454.433441162,-14670868.873596191,-7382255.554199219,1780181.7655563354,8927662.84942627,-8516358.375549316,18540899.2767334,-8256622.314453125,-24528385.162353516,-40377334.59472656,-22025255.20324707,4149986.743927002,1231972.2175598145,1472425.8184432983,1243863.7018203735,17484146.118164062,4012092.5903320312,-24641906.73828125,-23239589.69116211,-19933870.315551758,-21072364.807128906,-8391239.166259766,6475982.189178467,-5435551.643371582,8217048.645019531,12694263.458251953,-23797628.40270996,-23829597.47314453,-24639984.130859375,-15236422.538757324,6892658.233642578,7414518.8331604,5548274.040222168,-24731229.782104492,-24177614.212036133,-13866169.929504395,7721535.205841064,8116658.2107543945
0.49,-37955226.89819336,-40864715.576171875,-13265501.976013184,-21419010.162353516,-10070117.950439453,-40952541.35131836,-35302917.48046875,-17640516.28112793,-17823862.075805664,-10964420.318603516,-3702596.90284729,-1686276.4358520508,4045130.729675293,11652599.334716797,-11698641.777038574,-27739395.141601562,-14682669.639587402,-14273476.600646973,-2810748.1002807617,-9887930.870056152,3762971.1627960205,28486366.271972656,14564755.4397583,-8733095.169067383,-6111074.924468994,-12313766.479492188,-6278531.074523926,2029882.9078674316,8214398.384094238,-9830031.394958496,12030886.65008545,-16947433.471679688,-20872962.951660156,-36129798.889160156,-19906316.75720215,5748963.356018066,1808612.7042770386,1190532.2074890137,-1531110.5251312256,13609154.70123291,-3292901.7543792725,-20871101.37939453,-19555046.08154297,-18240013.122558594,-19588039.39819336,-7931240.081787109,6475431.9190979,-5414188.861846924,5258924.0074157715,8263175.964355469,-20224090.576171875,-20069755.55419922,-20870471.954345703,-15158023.834228516,6069475.6507873535,6608202.934265137,4858902.931213379,-20777265.548706055,-20444208.1451416,-13918047.904968262,6960608.959197998,7327387.33291626
0.495,-29909566.87927246,-35974758.14819336,-9303572.654724121,-20202856.063842773,-12967075.34790039,-35633201.599121094,-29803300.857543945,-16357776.641845703,-16904684.06677246,-11670779.22821045,-6241308.689117432,-4082430.839538574,-289848.77467155457,6962066.650390625,-11959704.399108887,-24069343.56689453,-13673082.35168457,-13289729.118347168,-3664958.4770202637,-11254310.607910156,298825.08516311646,21960514.068603516,7755061.626434326,-9722793.579101562,-8590539.932250977,-10287304.878234863,-5322569.370269775,2721404.0756225586,7655191.421508789,-10172276.496887207,4718065.26184082,-26591016.76940918,-20644924.16381836,-34349822.998046875,-18273002.62451172,8044771.194458008,2899206.6383361816,1360868.3347702026,-4182939.5294189453,10479514.122009277,-8258477.210998535,-20359081.268310547,-19228340.14892578,-16541862.487792969,-16377693.176269531,-5529345.512390137,7430144.786834717,-4539436.340332031,2356320.61958313,2641693.115234375,-19779445.64819336,-19784965.51513672,-20451526.641845703,-13775263.786315918,3974288.22517395,4429717.063903809,2933039.665222168,-20038066.864013672,-20067157.745361328,-12796530.723571777,4627963.066101074,4878049.373626709
